* Sea-Bird SBE19plus  Data File:
* FileName = myfile.hex
* Software version 2.2.6
* Temperature SN = 7321
* Conductivity SN = 7321
* System UpLoad Time = Jul 21 2014 10:14:59
* <ApplicationData>
* <Seaterm232>
* <SoftwareVersion>2.2.6</SoftwareVersion>
* <BuildDate>05-Mar-2013</BuildDate>
* </Seaterm232>
* </ApplicationData>
* <InstrumentState>
* <HardwareData DeviceType='SBE19plus' SerialNumber='01907321'>
*    <Manufacturer>Sea-Bird Electronics, Inc.</Manufacturer>
*    <FirmwareVersion>2.5.2</FirmwareVersion>
*    <FirmwareDate>12 Mar 2013 11:50</FirmwareDate>
*    <CommandSetVersion>1.3</CommandSetVersion>
*    <PCBAssembly PCBSerialNum='54623' AssemblyNum='41054H'/>
*    <PCBAssembly PCBSerialNum='54122' AssemblyNum='41580B'/>
*    <PCBAssembly PCBSerialNum='53995' AssemblyNum='41606'/>
*    <PCBAssembly PCBSerialNum='55594' AssemblyNum='41059D'/>
*    <MfgDate>29-MAR-2013</MfgDate>
*    <InternalSensors>
*       <Sensor id='Main Temperature'>
*          <type>temperature0</type>
*          <SerialNumber>01907321</SerialNumber>
*       </Sensor>
*       <Sensor id='Main Conductivity'>
*          <type>conductivity-0</type>
*          <SerialNumber>01907321</SerialNumber>
*       </Sensor>
*       <Sensor id='Main Pressure'>
*          <type>strain-0</type>
*          <SerialNumber>3830745</SerialNumber>
*       </Sensor>
*    </InternalSensors>
*    <ExternalSensors>
*       <Sensor id='volt 0'>
*          <type>SBE 43 OXY</type>
*          <SerialNumber>432601</SerialNumber>
*       </Sensor>
*       <Sensor id='volt 1'>
*          <type>not assigned</type>
*          <SerialNumber>not assigned</SerialNumber>
*       </Sensor>
*       <Sensor id='volt 2'>
*          <type>ECO-FLNTURT CHL</type>
*          <SerialNumber>FLNTURT-2667</SerialNumber>
*       </Sensor>
*       <Sensor id='volt 3'>
*          <type>ECO-FLNTURT TURB</type>
*          <SerialNumber>FLNTURT-2667</SerialNumber>
*       </Sensor>
*       <Sensor id='volt 4'>
*          <type>not assigned</type>
*          <SerialNumber>not assigned</SerialNumber>
*       </Sensor>
*       <Sensor id='volt 5'>
*          <type>not assigned</type>
*          <SerialNumber>not assigned</SerialNumber>
*       </Sensor>
*       <Sensor id='serial'>
*          <type>not assigned</type>
*          <SerialNumber>not assigned</SerialNumber>
*       </Sensor>
*    </ExternalSensors>
* </HardwareData>
* <StatusData DeviceType='SBE19plus' SerialNumber='01907321'>
*    <DateTime>2014-07-21T10:11:26</DateTime>
*    <LoggingState>not logging</LoggingState>
*    <EventSummary numEvents='0'/>
*    <Power>
*       <vMain>13.4</vMain>
*       <vLith>8.8</vLith>
*       <iMain>62.0</iMain>
*       <iPump>62.9</iPump>
*       <iExt01> 4.8</iExt01>
*       <iExt2345>24.4</iExt2345>
*    </Power>
*    <MemorySummary>
*       <Bytes>77979</Bytes>
*       <Samples>4587</Samples>
*       <SamplesFree>3865892</SamplesFree>
*       <SampleLength>17</SampleLength>
*       <Profiles>10</Profiles>
*    </MemorySummary>
* </StatusData>
* <ConfigurationData DeviceType='SBE19plus' SerialNumber='01907321'>
*    <ProfileMode>
*       <ScansToAverage>1</ScansToAverage>
*       <MinimumCondFreq>3200</MinimumCondFreq>
*       <PumpDelay>0</PumpDelay>
*       <AutoRun>no</AutoRun>
*       <IgnoreSwitch>no</IgnoreSwitch>
*    </ProfileMode>
*    <Battery>
*       <Type>alkaline</Type>
*       <CutOff>7.5</CutOff>
*    </Battery>
*    <DataChannels>
*       <ExtVolt0>yes</ExtVolt0>
*       <ExtVolt1>no</ExtVolt1>
*       <ExtVolt2>yes</ExtVolt2>
*       <ExtVolt3>yes</ExtVolt3>
*       <ExtVolt4>no</ExtVolt4>
*       <ExtVolt5>no</ExtVolt5>
*       <SBE38>no</SBE38>
*       <WETLABS>no</WETLABS>
*       <OPTODE>no</OPTODE>
*       <SBE63>no</SBE63>
*       <GTD>no</GTD>
*    </DataChannels>
*    <EchoCharacters>yes</EchoCharacters>
*    <OutputExecutedTag>yes</OutputExecutedTag>
*    <OutputFormat>raw HEX</OutputFormat>
* </ConfigurationData>
* <CalibrationCoefficients DeviceType='SBE19plus' SerialNumber='01907321'>
*    <Calibration format='TEMP1' id='Main Temperature'>
*       <SerialNum>01907321</SerialNum>
*       <CalDate>19-Apr-13</CalDate>
*       <TA0>1.274250e-03</TA0>
*       <TA1>2.711930e-04</TA1>
*       <TA2>-9.818442e-07</TA2>
*       <TA3>1.745792e-07</TA3>
*       <TOFFSET>0.000000e+00</TOFFSET>
*    </Calibration>
*    <Calibration format='WBCOND0' id='Main Conductivity'>
*       <SerialNum>01907321</SerialNum>
*       <CalDate>19-Apr-13</CalDate>
*       <G>-9.698820e-01</G>
*       <H>1.308425e-01</H>
*       <I>-3.009542e-04</I>
*       <J>3.899377e-05</J>
*       <CPCOR>-9.570000e-08</CPCOR>
*       <CTCOR>3.250000e-06</CTCOR>
*       <CSLOPE>1.000000e+00</CSLOPE>
*    </Calibration>
*    <Calibration format='STRAIN0' id='Main Pressure'>
*       <SerialNum>3830745</SerialNum>
*       <CalDate>11-Apr-13</CalDate>
*       <PA0>-1.586986e+00</PA0>
*       <PA1>2.644737e-03</PA1>
*       <PA2>1.551887e-11</PA2>
*       <PTCA0>5.256627e+05</PTCA0>
*       <PTCA1>-4.662673e+01</PTCA1>
*       <PTCA2>8.546632e-01</PTCA2>
*       <PTCB0>2.512650e+01</PTCB0>
*       <PTCB1>-5.000000e-04</PTCB1>
*       <PTCB2>0.000000e+00</PTCB2>
*       <PTEMPA0>-6.044749e+01</PTEMPA0>
*       <PTEMPA1>5.351299e+01</PTEMPA1>
*       <PTEMPA2>-2.666787e-01</PTEMPA2>
*       <POFFSET>0.000000e+00</POFFSET>
*       <PRANGE>8.700000e+02</PRANGE>
*    </Calibration>
*    <Calibration format='VOLT0' id='Volt 0'>
*       <OFFSET>-4.745369e-02</OFFSET>
*       <SLOPE>1.248820e+00</SLOPE>
*    </Calibration>
*    <Calibration format='VOLT0' id='Volt 1'>
*       <OFFSET>-4.755158e-02</OFFSET>
*       <SLOPE>1.249298e+00</SLOPE>
*    </Calibration>
*    <Calibration format='VOLT0' id='Volt 2'>
*       <OFFSET>-4.704421e-02</OFFSET>
*       <SLOPE>1.248665e+00</SLOPE>
*    </Calibration>
*    <Calibration format='VOLT0' id='Volt 3'>
*       <OFFSET>-4.770947e-02</OFFSET>
*       <SLOPE>1.248327e+00</SLOPE>
*    </Calibration>
*    <Calibration format='VOLT0' id='Volt 4'>
*       <OFFSET>-4.724842e-02</OFFSET>
*       <SLOPE>1.247527e+00</SLOPE>
*    </Calibration>
*    <Calibration format='VOLT0' id='Volt 5'>
*       <OFFSET>-4.797158e-02</OFFSET>
*       <SLOPE>1.247900e+00</SLOPE>
*    </Calibration>
*    <Calibration format='FREQ0' id='external frequency channel'>
*       <EXTFREQSF>9.999925e-01</EXTFREQSF>
*    </Calibration>
* </CalibrationCoefficients>
* <EventCounters DeviceType='SBE19plus' SerialNumber='01907321'>
*    <EventSummary numEvents='0'/>
* </EventCounters></InstrumentState>
* <Headers>
* cast  10 21 Jul 2014 10:02:46 samples 3175 to 4587, avg = 1, stop = mag switch
# nquan = 8
# nvalues = 1413                                  
# units = specified
# name 0 = scan: Scan Count
# name 1 = tv290C: Temperature [ITS-90, deg C]
# name 2 = c0mS/cm: Conductivity [mS/cm]
# name 3 = prFAILS: Pressure, Strain Gauge [db]
# name 4 = sbeox0ML/L: Oxygen, SBE 43 [ml/l]
# name 5 = turbWETntu0: Turbidity, WET Labs ECO [NTU]
# name 6 = flECO-AFL: Fluorescence, WET Labs ECO-AFL/FL [mg/m^3]
# name 7 = flag:  0.000e+00
# span 0 =          1,       1413                 
# span 1 =    14.9758,    21.6216                 
# span 2 =   0.002534,  39.163043                 
# span 3 =      0.110,     14.975                 
# span 4 =     3.4808,     6.0796                 
# span 5 =    -7.2572,   616.8829                 
# span 6 =    -0.5996,     2.1137                 
# span 7 = 0.0000e+00, 0.0000e+00                 
# interval = seconds: 0.25
# start_time = Jul 21 2014 10:02:46 [Instrument's time stamp, header]
# bad_flag = -9.990e-29
# <Sensors count="6" >
#   <sensor Channel="1" >
#     <!-- Count, Temperature -->
#     <TemperatureSensor SensorID="58" >
#       <SerialNumber>7321</SerialNumber>
#       <CalibrationDate>19-Apr-13</CalibrationDate>
#       <A0>1.27425000e-003</A0>
#       <A1>2.71193000e-004</A1>
#       <A2>-9.81844100e-007</A2>
#       <A3>1.74579200e-007</A3>
#       <Slope>1.00000000</Slope>
#       <Offset>0.0000</Offset>
#     </TemperatureSensor>
#   </sensor>
#   <sensor Channel="2" >
#     <!-- Frequency 0, Conductivity -->
#     <ConductivitySensor SensorID="3" >
#       <SerialNumber>7321</SerialNumber>
#       <CalibrationDate>19-Apr-13</CalibrationDate>
#       <UseG_J>1</UseG_J>
#       <!-- Cell const and series R are applicable only for wide range sensors. -->
#       <SeriesR>0.0000</SeriesR>
#       <CellConst>2000.0000</CellConst>
#       <ConductivityType>0</ConductivityType>
#       <Coefficients equation="0" >
#         <A>0.00000000e+000</A>
#         <B>0.00000000e+000</B>
#         <C>0.00000000e+000</C>
#         <D>0.00000000e+000</D>
#         <M>0.0</M>
#         <CPcor>-9.57000000e-008</CPcor>
#       </Coefficients>
#       <Coefficients equation="1" >
#         <G>-9.69882000e-001</G>
#         <H>1.30842500e-001</H>
#         <I>-3.00954200e-004</I>
#         <J>3.89937700e-005</J>
#         <CPcor>-9.57000000e-008</CPcor>
#         <CTcor>3.2500e-006</CTcor>
#         <!-- WBOTC not applicable unless ConductivityType = 1. -->
#         <WBOTC>0.00000000e+000</WBOTC>
#       </Coefficients>
#       <Slope>1.00000000</Slope>
#       <Offset>0.00000</Offset>
#     </ConductivitySensor>
#   </sensor>
#   <sensor Channel="3" >
#     <!-- Count, Pressure, Strain Gauge -->
#     <PressureSensor SensorID="46" >
#       <SerialNumber>7321</SerialNumber>
#       <CalibrationDate>11-Apr-13</CalibrationDate>
#       <PA0>-1.58698634e+000</PA0>
#       <PA1>2.64473656e-003</PA1>
#       <PA2>1.55188714e-011</PA2>
#       <PTEMPA0>-6.04474936e+001</PTEMPA0>
#       <PTEMPA1>5.35129950e+001</PTEMPA1>
#       <PTEMPA2>-2.66678730e-001</PTEMPA2>
#       <PTCA0>5.25662714e+005</PTCA0>
#       <PTCA1>-4.66267257e+001</PTCA1>
#       <PTCA2>8.54663158e-001</PTCA2>
#       <PTCB0>2.51265000e+001</PTCB0>
#       <PTCB1>-5.00000000e-004</PTCB1>
#       <PTCB2>0.00000000e+000</PTCB2>
#       <Offset>0.000000</Offset>
#     </PressureSensor>
#   </sensor>
#   <sensor Channel="4" >
#     <!-- A/D voltage 0, Oxygen, SBE 43 -->
#     <OxygenSensor SensorID="38" >
#       <SerialNumber>2601</SerialNumber>
#       <CalibrationDate>17-Apr-13</CalibrationDate>
#       <Use2007Equation>1</Use2007Equation>
#       <CalibrationCoefficients equation="0" >
#         <!-- Coefficients for Owens-Millard equation. -->
#         <Boc>0.0000</Boc>
#         <Soc>0.0000e+000</Soc>
#         <offset>0.0000</offset>
#         <Pcor>0.00e+000</Pcor>
#         <Tcor>0.0000</Tcor>
#         <Tau>0.0</Tau>
#       </CalibrationCoefficients>
#       <CalibrationCoefficients equation="1" >
#         <!-- Coefficients for Sea-Bird equation - SBE calibration in 2007 and later. -->
#         <Soc>4.6051e-001</Soc>
#         <offset>-0.5409</offset>
#         <A>-2.7351e-003</A>
#         <B> 1.4001e-004</B>
#         <C>-2.5649e-006</C>
#         <D0> 2.5826e+000</D0>
#         <D1> 1.92634e-004</D1>
#         <D2>-4.64803e-002</D2>
#         <E> 3.6000e-002</E>
#         <Tau20> 1.5500</Tau20>
#         <H1>-3.3000e-002</H1>
#         <H2> 5.0000e+003</H2>
#         <H3> 1.4500e+003</H3>
#       </CalibrationCoefficients>
#     </OxygenSensor>
#   </sensor>
#   <sensor Channel="5" >
#     <!-- A/D voltage 1, Fluorometer, WET Labs ECO-AFL/FL -->
#     <FluoroWetlabECO_AFL_FL_Sensor SensorID="20" >
#       <SerialNumber>2667</SerialNumber>
#       <CalibrationDate>26-Mar-13</CalibrationDate>
#       <ScaleFactor>5.30000000e+001</ScaleFactor>
#       <!-- Dark output -->
#       <Vblank>0.0680</Vblank>
#     </FluoroWetlabECO_AFL_FL_Sensor>
#   </sensor>
#   <sensor Channel="6" >
#     <!-- A/D voltage 2, Turbidity Meter, WET Labs, ECO-NTU -->
#     <TurbidityMeter SensorID="67" >
#       <SerialNumber>2667</SerialNumber>
#       <CalibrationDate>26-Mar-13</CalibrationDate>
#       <ScaleFactor>204.000000</ScaleFactor>
#       <!-- Dark output -->
#       <DarkVoltage>0.068000</DarkVoltage>
#     </TurbidityMeter>
#   </sensor>
# </Sensors>
# datcnv_date = Jul 21 2014 10:15:35, 7.23.1 [datcnv_vars = 7]
# datcnv_in = myfile.hex myfile.xmlcon
# datcnv_skipover = 0
# datcnv_ox_hysteresis_correction = yes
# datcnv_ox_tau_correction = yes
# file_type = ascii
*END*
          1    21.5897   0.003034      0.153     6.0707    -5.4829    -0.1629  0.000e+00
          2    21.5899   0.002978      0.153     6.0748    -5.6230    -0.1588  0.000e+00
          3    21.5904   0.003034      0.153     6.0703    -5.3428    -0.1305  0.000e+00
          4    21.5905   0.003034      0.153     6.0786    -5.4206    -0.1507  0.000e+00
          5    21.5908   0.002978      0.149     6.0714    -5.4829    -0.1831  0.000e+00
          6    21.5910   0.003006      0.149     6.0737    -5.4829    -0.1548  0.000e+00
          7    21.5913   0.002951      0.153     6.0747    -5.4985    -0.1346  0.000e+00
          8    21.5915   0.002923      0.149     6.0763    -5.5296    -0.1588  0.000e+00
          9    21.5917   0.002951      0.153     6.0719    -5.3428    -0.1871  0.000e+00
         10    21.5921   0.002951      0.149     6.0723    -5.5452    -0.1507  0.000e+00
         11    21.5924   0.002867      0.149     6.0722    -5.5452    -0.1305  0.000e+00
         12    21.5927   0.002895      0.150     6.0669    -5.6074    -0.1426  0.000e+00
         13    21.5931   0.002895      0.148     6.0740    -5.4673    -0.1467  0.000e+00
         14    21.5934   0.002867      0.144     6.0751    -5.5140    -0.1426  0.000e+00
         15    21.5937   0.002840      0.148     6.0729    -5.5607    -0.1426  0.000e+00
         16    21.5941   0.002840      0.148     6.0708    -5.4829    -0.1548  0.000e+00
         17    21.5943   0.002867      0.150     6.0756    -5.5918    -0.1790  0.000e+00
         18    21.5945   0.002840      0.148     6.0730    -5.5763    -0.1346  0.000e+00
         19    21.5950   0.002534      0.144     6.0713    -5.5140    -0.1548  0.000e+00
         20    21.5950   0.002812      0.146     6.0701    -5.4829    -0.1467  0.000e+00
         21    21.5954   0.002784      0.150     6.0718    -5.5296    -0.1507  0.000e+00
         22    21.5958   0.002784      0.150     6.0714    -4.7514    -0.1629  0.000e+00
         23    21.5962   0.002812      0.146     6.0719    -4.8136    -0.1467  0.000e+00
         24    21.5967   0.002784      0.150     6.0732    -4.6891    -0.1224  0.000e+00
         25    21.5969   0.002784      0.145     6.0737    -4.7825    -0.1305  0.000e+00
         26    21.5974   0.002812      0.148     6.0725    -4.6580     0.5286  0.000e+00
         27    21.5978   0.002784      0.148     6.0713    -4.7202     0.5124  0.000e+00
         28    21.5982   0.002812      0.146     6.0728    -4.6736     0.4801  0.000e+00
         29    21.5984   0.002784      0.145     6.0709    -4.7202     0.4882  0.000e+00
         30    21.5989   0.002784      0.146     6.0732    -3.7708     0.2051  0.000e+00
         31    21.5990   0.002812      0.146     6.0741    -3.7708     0.2092  0.000e+00
         32    21.5993   0.002784      0.145     6.0726    -3.8020     0.1647  0.000e+00
         33    21.5997   0.002840      0.145     6.0737    -3.7086     0.1728  0.000e+00
         34    21.5999   0.002978      0.147     6.0755    -3.7397     0.1808  0.000e+00
         35    21.6001   0.002951      0.147     6.0732    -6.5257    -0.5834  0.000e+00
         36    21.6003   0.003034      0.145     6.0740    -6.4946    -0.5996  0.000e+00
         37    21.6006   0.003090      0.147     6.0705    -6.3545    -0.5915  0.000e+00
         38    21.6009   0.003090      0.149     6.0692    -6.5413    -0.5794  0.000e+00
         39    21.6013   0.003145      0.145     6.0694    -6.7125    -0.3650  0.000e+00
         40    21.6014   0.003256      0.145     6.0668    -6.7436    -0.3327  0.000e+00
         41    21.6021   0.003228      0.145     6.0674    -6.6346    -0.3367  0.000e+00
         42    21.6023   0.003228      0.145     6.0690    -6.7280    -0.3448  0.000e+00
         43    21.6027   0.003256      0.143     6.0706    -5.6074    -0.3812  0.000e+00
         44    21.6032   0.003284      0.143     6.0697    -5.7164    -0.4176  0.000e+00
         45    21.6033   0.003339      0.145     6.0742    -5.7786    -0.4257  0.000e+00
         46    21.6036   0.003312      0.145     6.0737    -5.7786    -0.4095  0.000e+00
         47    21.6041   0.003395      0.147     6.0733    -5.7164    -0.1305  0.000e+00
         48    21.6044   0.003339      0.147     6.0746    -5.8409    -0.1548  0.000e+00
         49    21.6048   0.003367      0.141     6.0730    -5.7631    -0.1386  0.000e+00
         50    21.6050   0.003339      0.145     6.0724    -5.6385    -0.1629  0.000e+00
         51    21.6054   0.003395      0.149     6.0758    -5.6697    -0.1467  0.000e+00
         52    21.6059   0.003312      0.149     6.0726    -6.0588    -0.1426  0.000e+00
         53    21.6063   0.003228      0.145     6.0677    -5.9031    -0.1426  0.000e+00
         54    21.6068   0.003284      0.143     6.0713    -6.0276    -0.1305  0.000e+00
         55    21.6068   0.003312      0.145     6.0691    -6.0121    -0.1467  0.000e+00
         56    21.6073   0.003284      0.145     6.0715    -5.9809     0.2334  0.000e+00
         57    21.6075   0.003284      0.143     6.0735    -6.0121     0.2698  0.000e+00
         58    21.6079   0.003256      0.145     6.0702    -6.0432     0.2536  0.000e+00
         59    21.6085   0.003228      0.145     6.0682    -5.9498     0.2455  0.000e+00
         60    21.6085   0.003228      0.145     6.0721    -4.4712     0.5205  0.000e+00
         61    21.6088   0.003201      0.147     6.0734    -4.4712     0.5003  0.000e+00
         62    21.6090   0.003201      0.145     6.0750    -4.5179     0.4760  0.000e+00
         63    21.6092   0.003228      0.145     6.0715    -4.5335     0.5043  0.000e+00
         64    21.6093   0.003145      0.145     6.0705     1.6299     0.0353  0.000e+00
         65    21.6097   0.003090      0.147     6.0727     1.5677     0.0434  0.000e+00
         66    21.6098   0.003145      0.145     6.0699     1.6144     0.0353  0.000e+00
         67    21.6101   0.003090      0.147     6.0683     1.7856     0.0515  0.000e+00
         68    21.6105   0.003145      0.145     6.0705     1.6766     0.0798  0.000e+00
         69    21.6110   0.003090      0.149     6.0681    -6.6969    -0.3489  0.000e+00
         70    21.6111   0.003090      0.147     6.0708    -6.7436    -0.3327  0.000e+00
         71    21.6116   0.003090      0.145     6.0738    -6.7280    -0.3287  0.000e+00
         72    21.6119   0.003034      0.147     6.0740    -6.7747    -0.3570  0.000e+00
         73    21.6122   0.003034      0.145     6.0757    -4.3623    -0.5632  0.000e+00
         74    21.6122   0.003034      0.145     6.0737    -4.1132    -0.5511  0.000e+00
         75    21.6127   0.003090      0.143     6.0715    -4.2222    -0.5389  0.000e+00
         76    21.6127   0.003034      0.143     6.0750    -4.2845    -0.5511  0.000e+00
         77    21.6129   0.003006      0.143     6.0677    -5.7786    -0.1467  0.000e+00
         78    21.6130   0.003034      0.147     6.0679    -5.6230    -0.1305  0.000e+00
         79    21.6136   0.003006      0.147     6.0666    -5.9343    -0.1629  0.000e+00
         80    21.6138   0.002951      0.147     6.0721    -5.6385    -0.1224  0.000e+00
         81    21.6143   0.002978      0.147     6.0690    -5.7164    -0.1467  0.000e+00
         82    21.6152   0.003006      0.145     6.0709    -5.8097    -0.1588  0.000e+00
         83    21.6156   0.003034      0.142     6.0705    -5.7786    -0.1426  0.000e+00
         84    21.6161   0.003034      0.145     6.0728    -5.7786    -0.1467  0.000e+00
         85    21.6171   0.003006      0.145     6.0720    -5.7164    -0.1386  0.000e+00
         86    21.6182   0.003006      0.147     6.0695    -5.9498    -0.1588  0.000e+00
         87    21.6183   0.002978      0.147     6.0747    -6.0121    -0.1629  0.000e+00
         88    21.6188   0.003006      0.145     6.0781    -5.9809    -0.1386  0.000e+00
         89    21.6190   0.003006      0.143     6.0792    -5.9809    -0.1588  0.000e+00
         90    21.6191   0.002978      0.145     6.0782    -5.0160    -0.1629  0.000e+00
         91    21.6200   0.003006      0.143     6.0766    -4.9848    -0.1224  0.000e+00
         92    21.6197   0.003006      0.147     6.0774    -5.0315    -0.1305  0.000e+00
         93    21.6208   0.002978      0.143     6.0784    -4.9848    -0.1265  0.000e+00
         94    21.6216   0.003006      0.147     6.0770    -5.5140    -0.3893  0.000e+00
         95    21.6088   0.007780      0.184     6.0796    -5.4518    -0.3893  0.000e+00
         96    21.4352   3.998033      0.235     6.0175    -5.5763    -0.4257  0.000e+00
         97    21.2421  13.803670      0.275     5.8198    -5.5296    -0.4217  0.000e+00
         98    21.1031  31.494497      0.308     5.4103    74.7506     1.3171  0.000e+00
         99    21.0110  31.686350      0.351     5.4112    74.6572     1.3009  0.000e+00
        100    20.9513  31.766574      0.392     5.4162    74.7039     1.3050  0.000e+00
        101    20.9096  31.950287      0.433     5.4096    74.7973     1.3090  0.000e+00
        102    20.8801  32.265888      0.466     5.4096    74.7039     1.3050  0.000e+00
        103    20.8533  32.409597      0.510     5.4024    -5.0627     0.3507  0.000e+00
        104    20.8325  32.510929      0.554     5.4032    -4.9070     0.3911  0.000e+00
        105    20.8200  32.558384      0.589     5.4057    -4.9537     0.3992  0.000e+00
        106    20.8163  32.576768      0.634     5.3040    -5.0315     0.3709  0.000e+00
        107    20.8158  32.597251      0.674     5.2358    -5.1872     0.2334  0.000e+00
        108    20.8169  32.614014      0.716     5.2174    -5.2806     0.2455  0.000e+00
        109    20.8186  32.630198      0.755     5.2246    -5.3117     0.2577  0.000e+00
        110    20.8213  32.663507      0.797     5.2392    -5.2494     0.2617  0.000e+00
        111    20.8236  32.685467      0.837     5.2566    -5.4829     0.4396  0.000e+00
        112    20.8262  32.637825      0.881     5.2991    -5.4362     0.4316  0.000e+00
        113    20.8294  32.658730      0.923     5.3470    -5.4829     0.4437  0.000e+00
        114    20.8369  32.691642      0.957     5.3823    -5.4051     0.4235  0.000e+00
        115    20.8584  32.709937      0.999     5.3452    -5.4518     0.4275  0.000e+00
        116    20.8771  32.730567      1.036     5.2533    -5.5452     0.4316  0.000e+00
        117    20.8904  32.756043      1.047     5.1403    -5.4829     0.4518  0.000e+00
        118    20.9010  32.760357      1.043     5.0064    -5.4829     0.4356  0.000e+00
        119    20.9080  32.747353      1.045     4.8674    -5.5607     0.4235  0.000e+00
        120    20.9109  32.738200      1.039     4.7204    -5.4673     0.4437  0.000e+00
        121    20.9124  32.743272      1.041     4.5885    -5.4051     0.4477  0.000e+00
        122    20.9140  32.785900      1.047     4.4816    -5.5607     0.4437  0.000e+00
        123    20.9156  32.819679      1.045     4.4038    -5.4673     0.4073  0.000e+00
        124    20.9177  32.842498      1.045     4.3468    -5.3739     0.5043  0.000e+00
        125    20.9291  32.842905      1.045     4.2960    -5.5452     0.5043  0.000e+00
        126    20.9606  32.820666      1.041     4.2511    -5.5296     0.4922  0.000e+00
        127    20.9811  32.809636      1.045     4.2062    -5.4518     0.4922  0.000e+00
        128    20.9948  32.863739      1.049     4.1667    -5.4518     0.5043  0.000e+00
        129    21.0048  32.894395      1.047     4.1387    -5.4829     0.5124  0.000e+00
        130    21.0094  32.903973      1.045     4.1032    -5.6230     0.4922  0.000e+00
        131    21.0079  32.890014      1.041     4.0684    -5.4362     0.5205  0.000e+00
        132    21.0134  32.862744      1.041     4.0396    -5.4206     0.5084  0.000e+00
        133    21.0251  32.861575      1.043     4.0089    -5.5452     0.5043  0.000e+00
        134    21.0366  32.920035      1.043     3.9839    -5.4985     0.5003  0.000e+00
        135    21.0474  32.939549      1.047     3.9582    -5.4362     0.5124  0.000e+00
        136    21.0494  32.950536      1.045     3.9372    -5.4829     0.4922  0.000e+00
        137    21.0470  32.928330      1.043     3.9130    -5.7164     0.4235  0.000e+00
        138    21.0497  32.903677      1.040     3.8958    -5.7164     0.4518  0.000e+00
        139    21.0551  32.905370      1.041     3.8772    -5.5607     0.4518  0.000e+00
        140    21.0617  32.952814      1.043     3.8549    -5.5763     0.3992  0.000e+00
        141    21.0738  32.980404      1.049     3.8278    -6.4634     0.3345  0.000e+00
        142    21.0810  32.987887      1.045     3.8037    -6.3856     0.3183  0.000e+00
        143    21.0801  32.973154      1.041     3.7868    -6.4790     0.2941  0.000e+00
        144    21.0787  32.952754      1.043     3.7740    -6.6346     0.2819  0.000e+00
        145    21.0792  32.973972      1.045     3.7592    -6.9771     0.3143  0.000e+00
        146    21.0800  32.995781      1.042     3.7467    -7.0082     0.2941  0.000e+00
        147    21.0807  33.015021      1.045     3.7298    -6.9771     0.2941  0.000e+00
        148    21.0832  32.981864      1.043     3.7206    -6.9459     0.2941  0.000e+00
        149    21.0862  32.995137      1.045     3.7105    -5.7786     0.4801  0.000e+00
        150    21.0899  33.030697      1.053     3.7048    -5.7475     0.4922  0.000e+00
        151    21.0958  33.054860      1.047     3.6945    -5.6541     0.4801  0.000e+00
        152    21.1045  33.028180      1.038     3.6931    -5.6385     0.5003  0.000e+00
        153    21.1082  32.973677      1.040     3.6965    -5.7942     0.5286  0.000e+00
        154    21.1072  32.966077      1.040     3.7080    -5.7786     0.4760  0.000e+00
        155    21.1056  33.019698      1.047     3.7092    -5.7164     0.5043  0.000e+00
        156    21.1051  33.051055      1.045     3.7055    -5.7475     0.4922  0.000e+00
        157    21.1054  33.059423      1.045     3.7015    -5.7319     0.5084  0.000e+00
        158    21.1166  33.021978      1.045     3.7061    -7.1794     0.7267  0.000e+00
        159    21.1399  32.963385      1.043     3.7124    -7.2416     0.7025  0.000e+00
        160    21.1495  32.991212      1.042     3.7233    -7.2572     0.7348  0.000e+00
        161    21.1620  33.034843      1.042     3.7244    -7.1483     0.7510  0.000e+00
        162    21.1722  33.055261      1.045     3.7159    -5.8564     0.3385  0.000e+00
        163    21.1776  33.042973      1.045     3.7079    -5.6697     0.3547  0.000e+00
        164    21.1771  33.034022      1.045     3.7012    -5.7164     0.3628  0.000e+00
        165    21.1728  33.038586      1.045     3.6873    -5.6852     0.3628  0.000e+00
        166    21.1707  33.050054      1.043     3.6645    -5.1094     0.5650  0.000e+00
        167    21.1702  33.057251      1.042     3.6408    -5.3428     0.5731  0.000e+00
        168    21.1710  33.058597      1.040     3.6120    -5.1716     0.5812  0.000e+00
        169    21.1706  33.064391      1.042     3.5882    -5.1249     0.5326  0.000e+00
        170    21.1700  33.081013      1.043     3.5693    -5.1716     0.5488  0.000e+00
        171    21.1703  33.098165      1.042     3.5494    -5.4673     0.5812  0.000e+00
        172    21.1725  33.083237      1.040     3.5331    -5.4051     0.5650  0.000e+00
        173    21.1727  33.060645      1.038     3.5270    -5.5140     0.5529  0.000e+00
        174    21.1703  33.050229      1.043     3.5246    -5.5296     0.5771  0.000e+00
        175    21.1666  33.089150      1.043     3.5225    -5.4985     0.5771  0.000e+00
        176    21.1660  33.110872      1.045     3.5167    -5.4051     0.5771  0.000e+00
        177    21.1676  33.114443      1.043     3.5129    -5.5763     0.5367  0.000e+00
        178    21.1686  33.093131      1.043     3.5099    -5.4051     0.5367  0.000e+00
        179    21.1670  33.088155      1.042     3.5144    -5.4673     0.5448  0.000e+00
        180    21.1646  33.109818      1.043     3.5146    -5.4985     0.5448  0.000e+00
        181    21.1646  33.111282      1.042     3.5149    -5.5763     0.5448  0.000e+00
        182    21.1655  33.079199      1.042     3.5152    -5.4673     0.5650  0.000e+00
        183    21.1642  33.069893      1.045     3.5130    -5.4829     0.4801  0.000e+00
        184    21.1620  33.128440      1.042     3.5107    -5.5140     0.5043  0.000e+00
        185    21.1620  33.147594      1.045     3.5061    -5.6385     0.4922  0.000e+00
        186    21.1634  33.131954      1.042     3.5051    -5.6074     0.5165  0.000e+00
        187    21.1640  33.078380      1.040     3.5082    -5.5296     0.5246  0.000e+00
        188    21.1629  33.057018      1.040     3.5237    -5.5296     0.5933  0.000e+00
        189    21.1621  33.063806      1.044     3.5300    -5.5918     0.5852  0.000e+00
        190    21.1621  33.097347      1.045     3.5350    -5.4051     0.5650  0.000e+00
        191    21.1627  33.140448      1.047     3.5321    -5.4362     0.5731  0.000e+00
        192    21.1645  33.151812      1.044     3.5262    -5.4985     0.5933  0.000e+00
        193    21.1665  33.112218      1.042     3.5360    -5.4829     0.5973  0.000e+00
        194    21.1675  33.046309      1.042     3.5485    -5.6385     0.5367  0.000e+00
        195    21.1681  33.049001      1.044     3.5577    -5.4518     0.5407  0.000e+00
        196    21.1687  33.090555      1.040     3.5662    -5.4051     0.6054  0.000e+00
        197    21.1697  33.124867      1.040     3.5673    -5.5296     0.5367  0.000e+00
        198    21.1710  33.132364      1.042     3.5684    -5.4829     0.5650  0.000e+00
        199    21.1712  33.120123      1.042     3.5715    -5.5452     0.5893  0.000e+00
        200    21.1709  33.085637      1.046     3.5761    -5.5452     0.5650  0.000e+00
        201    21.1705  33.057251      1.042     3.5756    -5.5452     0.5650  0.000e+00
        202    21.1703  33.078555      1.042     3.5706    -5.3584     0.5286  0.000e+00
        203    21.1704  33.120299      1.046     3.5627    -5.3895     0.5650  0.000e+00
        204    21.1713  33.141794      1.044     3.5502    -5.3739     0.5650  0.000e+00
        205    21.1729  33.116961      1.042     3.5479    -5.4829     0.5529  0.000e+00
        206    21.1749  33.081422      1.040     3.5440    -5.5452     0.5690  0.000e+00
        207    21.1762  33.067726      1.040     3.5387    -5.5140     0.5448  0.000e+00
        208    21.1770  33.098575      1.042     3.5300    -5.4051     0.5650  0.000e+00
        209    21.1798  33.128907      1.042     3.5222    -5.3117     0.5731  0.000e+00
        210    21.1843  33.140328      1.044     3.5156    -5.4518     0.5610  0.000e+00
        211    21.1876  33.114441      1.040     3.5101    -5.5763     0.5326  0.000e+00
        212    21.1884  33.080601      1.040     3.5095    -5.3117     0.5529  0.000e+00
        213    21.1874  33.074807      1.042     3.5068    -5.3428     0.6823  0.000e+00
        214    21.1861  33.109406      1.042     3.5024    -5.3739     0.6984  0.000e+00
        215    21.1868  33.142202      1.044     3.4938    -5.2339     0.7025  0.000e+00
        216    21.1885  33.141148      1.042     3.4866    -5.3584     0.7550  0.000e+00
        217    21.1896  33.095119      1.040     3.4875    -5.9965     0.9289  0.000e+00
        218    21.1890  33.039871      1.037     3.4867    -5.9965     0.9127  0.000e+00
        219    21.1867  32.971447      1.042     3.4917    -5.8097     0.9330  0.000e+00
        220    21.1720  32.872828      1.044     3.4840    -6.0899     0.9774  0.000e+00
        221    21.1255  32.832962      1.042     3.4808    -6.0743     0.8925  0.000e+00
        222    21.0710  32.813361      1.040     3.4858    -5.5607     0.7389  0.000e+00
        223    21.0272  32.795512      1.044     3.5132    -5.3739     0.7146  0.000e+00
        224    20.9937  32.793708      1.044     3.5449    -5.4362     0.7025  0.000e+00
        225    20.9682  32.800769      1.042     3.5801    -5.3428     0.6984  0.000e+00
        226    20.9488  32.798846      1.044     3.6153    -5.4051     0.6256  0.000e+00
        227    20.9331  32.787356      1.039     3.6456    -5.5918     0.6499  0.000e+00
        228    20.9214  32.785724      1.040     3.6785    -5.5918     0.6337  0.000e+00
        229    20.9130  32.794183      1.040     3.7436    -5.4362     0.6256  0.000e+00
        230    20.9065  32.792200      1.044     3.8491    -5.4051     0.6499  0.000e+00
        231    20.9007  32.790626      1.046     4.0026    -5.4051     0.6216  0.000e+00
        232    20.8961  32.786135      1.040     4.1958    -5.5296     0.6256  0.000e+00
        233    20.8924  32.794943      1.039     4.4169    -5.3428     0.6014  0.000e+00
        234    20.8911  32.800369      1.039     4.6473    -5.4985     0.6014  0.000e+00
        235    20.8901  32.794769      1.040     4.8487    -5.4362     0.6014  0.000e+00
        236    20.8879  32.801419      1.040     5.0121    -5.4518     0.6378  0.000e+00
        237    20.8866  32.810463      1.041     5.1291    -5.4985     0.6054  0.000e+00
        238    20.8861  32.802820      1.040     5.1880    -5.5452     0.6701  0.000e+00
        239    20.8844  32.795178      1.040     5.1861    -5.5607     0.6256  0.000e+00
        240    20.8827  32.794128      1.039     5.1326    -5.4518     0.6418  0.000e+00
        241    20.8811  32.793720      1.041     5.0529    -5.5763     0.6135  0.000e+00
        242    20.8796  32.800779      1.042     4.9671    -5.4051     0.6256  0.000e+00
        243    20.8789  32.803987      1.041     4.8702    -5.6230     0.6135  0.000e+00
        244    20.8779  32.798270      1.039     4.7770    -5.6697     0.6620  0.000e+00
        245    20.8759  32.795412      1.037     4.6962    -5.4051     0.6418  0.000e+00
        246    20.8744  32.800838      1.037     4.6414    -5.4829     0.6499  0.000e+00
        247    20.8740  32.804863      1.039     4.6220    -5.5607     0.6297  0.000e+00
        248    20.8730  32.797687      1.039     4.6196    -5.3584     0.6459  0.000e+00
        249    20.8699  32.805739      1.039     4.6183    -5.5607     0.6297  0.000e+00
        250    20.8679  32.810056      1.041     4.6243    -5.5452     0.6580  0.000e+00
        251    20.8671  32.784855      1.040     4.6366    -5.5763     0.6378  0.000e+00
        252    20.8647  32.831122      1.040     4.6418    -5.4051     0.6337  0.000e+00
        253    20.8661  32.858440      1.042     4.6532    -5.5763     0.6580  0.000e+00
        254    20.8651  32.785497      1.042     4.6690    -5.6230     0.6661  0.000e+00
        255    20.8633  32.785730      1.041     4.6872    -5.5452     0.5893  0.000e+00
        256    20.8638  32.817175      1.041     4.7233    -5.4829     0.5650  0.000e+00
        257    20.8641  32.826162      1.039     4.7856    -5.4051     0.5852  0.000e+00
        258    20.8627  32.816650      1.040     4.8550    -5.6074     0.5731  0.000e+00
        259    20.8611  32.816184      1.040     4.9058    -5.4051     0.5731  0.000e+00
        260    20.8598  32.845598      1.038     4.9329    -5.5140     0.6135  0.000e+00
        261    20.8594  32.837718      1.042     4.9234    -5.4829     0.6742  0.000e+00
        262    20.8594  32.814608      1.040     4.8866    -5.4206     0.5973  0.000e+00
        263    20.8584  32.869709      1.038     4.8166    -5.5140     0.6337  0.000e+00
        264    20.8587  32.842679      1.042     4.7432    -5.4985     0.6256  0.000e+00
        265    20.8591  32.798914      1.040     4.6680    -5.4985     0.6418  0.000e+00
        266    20.8600  32.855930      1.040     4.6145    -5.4518     0.6095  0.000e+00
        267    20.8626  32.839177      1.040     4.5905    -5.3584     0.6540  0.000e+00
        268    20.8638  32.782405      1.042     4.5797    -5.4518     0.6216  0.000e+00
        269    20.8640  32.818926      1.038     4.5638    -5.4206     0.6378  0.000e+00
        270    20.8651  32.823244      1.036     4.5583    -5.6074     0.6337  0.000e+00
        271    20.8632  32.777681      1.038     4.5570    -5.6074     0.6135  0.000e+00
        272    20.8585  32.819102      1.044     4.5831    -5.6074     0.6580  0.000e+00
        273    20.8557  32.824295      1.044     4.6211    -5.5296     0.5812  0.000e+00
        274    20.8528  32.778674      1.038     4.6601    -5.4673     0.5893  0.000e+00
        275    20.8499  32.787948      1.038     4.6761    -5.5296     0.5205  0.000e+00
        276    20.8495  32.816360      1.040     4.6987    -5.4518     0.5165  0.000e+00
        277    20.8495  32.794190      1.038     4.7173    -5.5452     0.5731  0.000e+00
        278    20.8482  32.784040      1.044     4.7322    -5.5140     0.5488  0.000e+00
        279    20.8464  32.785907      1.038     4.7338    -5.5763     0.5448  0.000e+00
        280    20.8451  32.781357      1.038     4.7130    -5.4985     0.5529  0.000e+00
        281    20.8451  32.802649      1.040     4.6724    -5.5140     0.5407  0.000e+00
        282    20.8473  32.825580      1.040     4.6298    -5.4829     0.5488  0.000e+00
        283    20.8498  32.772317      1.037     4.5922    -5.4673     0.5650  0.000e+00
        284    20.8528  32.767359      1.037     4.5407    -5.6074     0.5812  0.000e+00
        285    20.8587  32.803640      1.033     4.4956    -5.6541     0.5973  0.000e+00
        286    20.8632  32.763101      1.037     4.4797    -5.5296     0.6661  0.000e+00
        287    20.8643  32.773773      1.039     4.4947    -5.5140     0.6135  0.000e+00
        288    20.8648  32.769807      1.040     4.5218    -5.4518     0.5893  0.000e+00
        289    20.8637  32.769983      1.039     4.5607    -5.3584     0.6701  0.000e+00
        290    20.8610  32.777681      1.039     4.5894    -5.4673     0.6782  0.000e+00
        291    20.8595  32.779314      1.037     4.6104    -5.3895     0.6256  0.000e+00
        292    20.8578  32.786139      1.037     4.6165    -5.6541     0.6580  0.000e+00
        293    20.8562  32.769225      1.038     4.6103    -5.3428     0.6337  0.000e+00
        294    20.8527  32.768584      1.039     4.5979    -5.5763     0.5367  0.000e+00
        295    20.8506  32.769401      1.039     4.5911    -5.5918     0.5731  0.000e+00
        296    20.8501  32.760770      1.039     4.6113    -5.3895     0.5933  0.000e+00
        297    20.8488  32.763045      1.035     4.6317    -5.3739     0.5973  0.000e+00
        298    20.8489  32.783457      1.037     4.6562    -5.7786     0.5488  0.000e+00
        299    20.8507  32.756280      1.037     4.6743    -5.7475     0.5448  0.000e+00
        300    20.8491  32.758496      1.039     4.6788    -5.7631     0.5812  0.000e+00
        301    20.8490  32.754356      1.042     4.6790    -5.7164     0.5529  0.000e+00
        302    20.8494  32.746777      1.040     4.6786    -5.4206     0.5812  0.000e+00
        303    20.8481  32.756455      1.039     4.6788    -5.5296     0.5812  0.000e+00
        304    20.8483  32.752957      1.039     4.6879    -5.5607     0.5893  0.000e+00
        305    20.8468  32.752724      1.037     4.6967    -5.4673     0.5852  0.000e+00
        306    20.8450  32.748993      1.039     4.6978    -5.4518     0.5893  0.000e+00
        307    20.8439  32.764036      1.039     4.7078    -5.4673     0.5650  0.000e+00
        308    20.8447  32.764503      1.039     4.7148    -5.5607     0.5893  0.000e+00
        309    20.8444  32.740597      1.039     4.7153    -5.4362     0.5407  0.000e+00
        310    20.8434  32.747827      1.042     4.7061    -5.6230     0.5610  0.000e+00
        311    20.8443  32.745728      1.038     4.6977    -5.4362     0.5650  0.000e+00
        312    20.8430  32.741414      1.037     4.7033    -5.5763     0.5367  0.000e+00
        313    20.8397  32.743921      1.035     4.7033    -5.6074     0.5771  0.000e+00
        314    20.8370  32.744096      1.031     4.7075    -5.3428     0.5690  0.000e+00
        315    20.8351  32.752142      1.035     4.7064    -5.5452     0.6620  0.000e+00
        316    20.8348  32.745962      1.038     4.7084    -5.4051     0.6418  0.000e+00
        317    20.8340  32.737217      1.040     4.7120    -5.4518     0.6418  0.000e+00
        318    20.8327  32.758906      1.038     4.7191    -5.5763     0.6661  0.000e+00
        319    20.8341  32.733778      1.044     4.7403    -5.4829     0.6337  0.000e+00
        320    20.8316  32.733720      1.038     4.7568    -5.4051     0.6499  0.000e+00
        321    20.8308  32.740774      1.035     4.7693    -5.5918     0.6216  0.000e+00
        322    20.8293  32.721013      1.035     4.7956    -5.4829     0.6095  0.000e+00
        323    20.8264  32.737101      1.037     4.8317    -5.5296     0.6499  0.000e+00
        324    20.8262  32.723695      1.039     4.8807    -5.5140     0.6256  0.000e+00
        325    20.8253  32.717750      1.039     4.9153    -5.5296     0.6499  0.000e+00
        326    20.8249  32.724336      1.037     4.9353    -5.5296     0.5973  0.000e+00
        327    20.8266  32.722937      1.039     4.9676    -5.5452     0.6459  0.000e+00
        328    20.8272  32.718566      1.041     4.9589    -5.4829     0.6095  0.000e+00
        329    20.8278  32.732146      1.041     4.9585    -5.4518     0.6095  0.000e+00
        330    20.8293  32.724102      1.039     4.9485    -5.3739     0.6135  0.000e+00
        331    20.8298  32.719381      1.037     4.9382    -5.4985     0.6135  0.000e+00
        332    20.8305  32.724510      1.037     4.9315    -5.5763     0.6054  0.000e+00
        333    20.8313  32.721013      1.035     4.9396    -5.4051     0.5367  0.000e+00
        334    20.8297  32.721654      1.039     4.9410    -5.4829     0.5973  0.000e+00
        335    20.8287  32.720955      1.041     4.9448    -5.4673     0.5650  0.000e+00
        336    20.8283  32.717749      1.037     4.9576    -5.5607     0.5812  0.000e+00
        337    20.8292  32.722062      1.039     4.9646    -5.4518     0.5367  0.000e+00
        338    20.8306  32.717807      1.033     4.9758    -5.5918     0.5731  0.000e+00
        339    20.8301  32.718973      1.033     4.9849    -5.3117     0.5488  0.000e+00
        340    20.8309  32.719614      1.035     4.9977    -5.6230     0.5529  0.000e+00
        341    20.8322  32.720605      1.037     5.0090    -5.6074     0.5569  0.000e+00
        342    20.8327  32.713728      1.035     5.0159    -5.6074     0.6014  0.000e+00
        343    20.8324  32.711163      1.039     5.0036    -5.5763     0.5529  0.000e+00
        344    20.8325  32.716700      1.037     4.9935    -5.6074     0.5246  0.000e+00
        345    20.8333  32.714718      1.033     4.9994    -5.6385     0.5812  0.000e+00
        346    20.8325  32.715476      1.035     5.0168    -5.4829     0.5812  0.000e+00
        347    20.8325  32.713203      1.037     5.0450    -5.5763     0.5690  0.000e+00
        348    20.8331  32.715068      1.035     5.0696    -5.4829     0.5610  0.000e+00
        349    20.8333  32.715301      1.037     5.0942    -5.4362     0.5812  0.000e+00
        350    20.8324  32.713611      1.037     5.1225    -5.4518     0.6014  0.000e+00
        351    20.8323  32.715476      1.037     5.1621    -5.4673     0.5529  0.000e+00
        352    20.8326  32.713553      1.035     5.1927    -5.5296     0.5650  0.000e+00
        353    20.8304  32.712621      1.039     5.2112    -5.4051     0.6499  0.000e+00
        354    20.8293  32.711572      1.037     5.2257    -5.4206     0.6580  0.000e+00
        355    20.8299  32.709940      1.039     5.2336    -5.4985     0.6580  0.000e+00
        356    20.8307  32.712329      1.041     5.2316    -5.5140     0.6297  0.000e+00
        357    20.8304  32.709124      1.035     5.2272    -5.4673     0.5731  0.000e+00
        358    20.8292  32.710523      1.037     5.2228    -5.3428     0.6014  0.000e+00
        359    20.8288  32.709707      1.037     5.2123    -5.4051     0.5812  0.000e+00
        360    20.8276  32.708425      1.037     5.2123    -5.5763     0.5610  0.000e+00
        361    20.8266  32.708891      1.037     5.1966    -5.5607     0.5529  0.000e+00
        362    20.8274  32.707434      1.039     5.1954    -5.4362     0.5771  0.000e+00
        363    20.8262  32.707434      1.037     5.2118    -5.5452     0.5448  0.000e+00
        364    20.8239  32.703356      1.039     5.2538    -5.4829     0.5812  0.000e+00
        365    20.8234  32.703530      1.037     5.2912    -5.4206     0.5893  0.000e+00
        366    20.8247  32.703530      1.035     5.3232    -5.4518     0.5610  0.000e+00
        367    20.8259  32.704521      1.039     5.3657    -5.4829     0.5286  0.000e+00
        368    20.8272  32.706618      1.035     5.4076    -5.4051     0.5771  0.000e+00
        369    20.8281  32.708075      1.039     5.4462    -5.5140     0.5690  0.000e+00
        370    20.8284  32.708425      1.035     5.4574    -5.4362     0.5650  0.000e+00
        371    20.8288  32.709124      1.034     5.4376    -5.4206     0.5973  0.000e+00
        372    20.8305  32.712795      1.039     5.3956    -5.6074     0.5812  0.000e+00
        373    20.8322  32.714252      1.037     5.3405    -5.4051     0.5286  0.000e+00
        374    20.8331  32.713553      1.037     5.2694    -5.4206     0.6054  0.000e+00
        375    20.8335  32.705219      1.035     5.1913    -5.6697     0.5812  0.000e+00
        376    20.8330  32.708250      1.037     5.1235    -5.4362     0.5205  0.000e+00
        377    20.8324  32.709532      1.033     5.0551    -5.4051     0.5973  0.000e+00
        378    20.8318  32.714310      1.039     5.0081    -5.4673     0.6135  0.000e+00
        379    20.8319  32.711163      1.039     4.9578    -5.5607     0.5246  0.000e+00
        380    20.8304  32.704986      1.041     4.9081    -5.5296     0.5448  0.000e+00
        381    20.8293  32.703355      1.039     4.8555    -5.3739     0.5731  0.000e+00
        382    20.8288  32.701257      1.033     4.8194    -5.4518     0.6054  0.000e+00
        383    20.8306  32.703938      1.037     4.7967    -5.7319     0.5610  0.000e+00
        384    20.8324  32.704578      1.037     4.7992    -5.7475     0.5690  0.000e+00
        385    20.8316  32.703704      1.037     4.8506    -5.7942     0.5731  0.000e+00
        386    20.8311  32.702306      1.037     4.9477    -5.7475     0.5973  0.000e+00
        387    20.8318  32.703937      1.035     5.0801    -5.3739     0.5286  0.000e+00
        388    20.8315  32.702131      1.034     5.2387    -5.3895     0.5529  0.000e+00
        389    20.8309  32.702772      1.041     5.3907    -5.5918     0.5852  0.000e+00
        390    20.8310  32.703530      1.041     5.5247    -5.4829     0.5448  0.000e+00
        391    20.8311  32.702947      1.039     5.6208    -5.3739     0.5893  0.000e+00
        392    20.8305  32.700383      1.037     5.6679    -5.5918     0.5610  0.000e+00
        393    20.8300  32.703122      1.036     5.6722    -5.5763     0.5448  0.000e+00
        394    20.8297  32.702539      1.036     5.6501    -5.4518     0.5731  0.000e+00
        395    20.8281  32.699859      1.039     5.6132    -5.6074     0.5852  0.000e+00
        396    20.8267  32.698810      1.037     5.5686    -5.4051     0.5731  0.000e+00
        397    20.8265  32.698810      1.034     5.5374    -5.3895     0.5448  0.000e+00
        398    20.8252  32.697995      1.034     5.5198    -5.2339     0.5610  0.000e+00
        399    20.8232  32.696072      1.039     5.5046    -5.2183     0.5771  0.000e+00
        400    20.8218  32.695315      1.037     5.5088    -5.5140     0.6054  0.000e+00
        401    20.8218  32.694324      1.037     5.5169    -5.4518     0.5690  0.000e+00
        402    20.8220  32.694499      1.037     5.5111    -5.3273     0.5771  0.000e+00
        403    20.8221  32.695140      1.039     5.5113    -5.4518     0.5367  0.000e+00
        404    20.8222  32.695140      1.036     5.5164    -5.4829     0.5893  0.000e+00
        405    20.8224  32.694907      1.036     5.5184    -5.4829     0.5569  0.000e+00
        406    20.8225  32.694091      1.032     5.5144    -5.6074     0.5529  0.000e+00
        407    20.8222  32.693159      1.036     5.5169    -5.5140     0.5893  0.000e+00
        408    20.8221  32.693683      1.037     5.5167    -5.5763     0.6580  0.000e+00
        409    20.8218  32.693683      1.034     5.5377    -5.5140     0.6580  0.000e+00
        410    20.8216  32.693916      1.032     5.5449    -5.5296     0.6337  0.000e+00
        411    20.8218  32.693683      1.032     5.5511    -5.4206     0.6337  0.000e+00
        412    20.8222  32.694324      1.037     5.5641    -5.5918     0.6135  0.000e+00
        413    20.8229  32.694732      1.037     5.5675    -5.5140     0.5407  0.000e+00
        414    20.8233  32.694324      1.038     5.5601    -5.4829     0.5610  0.000e+00
        415    20.8232  32.695314      1.039     5.5461    -5.3739     0.5529  0.000e+00
        416    20.8231  32.695548      1.036     5.5355    -5.4673     0.5529  0.000e+00
        417    20.8231  32.696363      1.039     5.5203    -5.4673     0.5933  0.000e+00
        418    20.8234  32.696480      1.034     5.5114    -5.4985     0.6095  0.000e+00
        419    20.8248  32.699043      1.037     5.5079    -5.5140     0.5610  0.000e+00
        420    20.8246  32.698636      1.039     5.5183    -5.5452     0.5771  0.000e+00
        421    20.8238  32.698636      1.037     5.5362    -5.4985     0.5610  0.000e+00
        422    20.8231  32.695548      1.035     5.5513    -5.4206     0.5812  0.000e+00
        423    20.8222  32.696363      1.036     5.5693    -5.3895     0.5205  0.000e+00
        424    20.8215  32.696946      1.035     5.5785    -5.3895     0.5812  0.000e+00
        425    20.8212  32.696480      1.037     5.5865    -5.4829     0.5690  0.000e+00
        426    20.8206  32.695723      1.035     5.5951    -5.5452     0.5448  0.000e+00
        427    20.8199  32.695140      1.035     5.6024    -5.4985     0.5610  0.000e+00
        428    20.8192  32.695548      1.035     5.6071    -5.4673     0.5529  0.000e+00
        429    20.8183  32.694732      1.037     5.6081    -5.5607     0.5610  0.000e+00
        430    20.8184  32.694091      1.035     5.6091    -5.5452     0.6337  0.000e+00
        431    20.8194  32.694732      1.037     5.6058    -5.4829     0.6014  0.000e+00
        432    20.8198  32.694907      1.037     5.6079    -5.5140     0.6176  0.000e+00
        433    20.8192  32.693683      1.043     5.6021    -5.4985     0.6297  0.000e+00
        434    20.8184  32.692868      1.063     5.5941    -5.4518     0.6014  0.000e+00
        435    20.8181  32.693451      1.107     5.5931    -5.5296     0.6135  0.000e+00
        436    20.8181  32.695141      1.145     5.5829    -5.5607     0.6256  0.000e+00
        437    20.8166  32.693451      1.185     5.5769    -5.3584     0.6499  0.000e+00
        438    20.8138  32.711749      1.224     5.5669    -5.3739     0.6540  0.000e+00
        439    20.8082  32.736055      1.264     5.5670    -5.4829     0.6337  0.000e+00
        440    20.8026  32.732733      1.306     5.5574    -5.4829     0.6337  0.000e+00
        441    20.8009  32.750048      1.348     5.5760    -5.4362     0.6418  0.000e+00
        442    20.8004  32.775997      1.388     5.5807    -5.4985     0.8683  0.000e+00
        443    20.8010  32.769990      1.428     5.5841    -5.4051     0.8440  0.000e+00
        444    20.7997  32.775998      1.470     5.5877    -5.4829     0.8602  0.000e+00
        445    20.7995  32.782414      1.506     5.6012    -5.3584     0.8764  0.000e+00
        446    20.8022  32.792971      1.547     5.6185    -5.4051     0.8764  0.000e+00
        447    20.8063  32.797871      1.590     5.6195    -5.4985     1.0583  0.000e+00
        448    20.8106  32.802830      1.629     5.6287    -5.5452     1.0098  0.000e+00
        449    20.8142  32.806972      1.673     5.6271    -5.4518     1.0583  0.000e+00
        450    20.8171  32.807497      1.711     5.6342    -5.5452     1.0462  0.000e+00
        451    20.8168  32.800146      1.753     5.6371    -5.5452     1.0381  0.000e+00
        452    20.8124  32.788421      1.791     5.6523    -5.5452     1.0826  0.000e+00
        453    20.8029  32.786089      1.835     5.6644    -5.6074     1.0421  0.000e+00
        454    20.7947  32.783640      1.871     5.6672    -5.5140     1.0745  0.000e+00
        455    20.7882  32.785099      1.913     5.6848    -5.5452     0.9734  0.000e+00
        456    20.7829  32.785333      1.946     5.6927    -5.4985     0.9734  0.000e+00
        457    20.7790  32.783467      1.986     5.6972    -5.4673     0.9896  0.000e+00
        458    20.7759  32.779093      2.025     5.6966    -5.4673     0.9815  0.000e+00
        459    20.7710  32.773553      2.061     5.6945    -5.5452     0.9491  0.000e+00
        460    20.7652  32.764106      2.101     5.6915    -5.4829     0.9370  0.000e+00
        461    20.7561  32.745974      2.140     5.6951    -5.4985     0.9249  0.000e+00
        462    20.7437  32.734840      2.176     5.6944    -5.5918     0.9289  0.000e+00
        463    20.7307  32.719978      2.214     5.6972    -5.4051     0.9411  0.000e+00
        464    20.7177  32.720213      2.249     5.6996    -5.3895     0.9815  0.000e+00
        465    20.7051  32.729482      2.289     5.6933    -5.3739     0.9694  0.000e+00
        466    20.6914  32.736887      2.324     5.6867    -5.4518     1.0219  0.000e+00
        467    20.6834  32.785520      2.361     5.6880    -5.4673     0.9815  0.000e+00
        468    20.6881  32.804887      2.397     5.6855    -5.4985     1.0583  0.000e+00
        469    20.6962  32.815856      2.432     5.6777    -5.3273     1.0421  0.000e+00
        470    20.7023  32.828401      2.472     5.6787    -5.4673     1.0745  0.000e+00
        471    20.7080  32.843109      2.505     5.6829    -5.3428     1.0745  0.000e+00
        472    20.7132  32.852214      2.541     5.7002    -5.4051     1.1109  0.000e+00
        473    20.7179  32.857526      2.576     5.7196    -5.4829     1.1311  0.000e+00
        474    20.7215  32.869378      2.607     5.7375    -5.4362     1.0947  0.000e+00
        475    20.7270  32.879304      2.643     5.7530    -5.3428     1.1271  0.000e+00
        476    20.7331  32.886837      2.676     5.7602    -5.5140     1.0745  0.000e+00
        477    20.7383  32.892735      2.716     5.7646    -5.4985     1.0664  0.000e+00
        478    20.7425  32.898750      2.753     5.7712    -5.3739     1.0704  0.000e+00
        479    20.7458  32.904591      2.788     5.7595    -5.5763     1.0745  0.000e+00
        480    20.7503  32.949522      2.820     5.7567    -5.4673     1.0704  0.000e+00
        481    20.7639  33.001434      2.859     5.7681    -5.4518     0.9694  0.000e+00
        482    20.7852  33.049925      2.892     5.7659    -5.5763     1.0017  0.000e+00
        483    20.8080  33.081116      2.930     5.7701    -5.4051     1.0098  0.000e+00
        484    20.8235  33.088842      2.972     5.7695    -5.4985     0.9896  0.000e+00
        485    20.8279  33.078715      3.006     5.7724    -5.4829     1.0745  0.000e+00
        486    20.8167  33.047582      3.047     5.7804    -5.6074     1.0745  0.000e+00
        487    20.7921  33.026172      3.083     5.7940    -5.5140     1.0745  0.000e+00
        488    20.7658  33.117831      3.120     5.8033    -5.5140     1.0543  0.000e+00
        489    20.7580  33.251866      3.160     5.8003    -5.4518     0.9936  0.000e+00
        490    20.7585  33.270051      3.196     5.8075    -5.4206     0.9977  0.000e+00
        491    20.7577  33.275390      3.231     5.8152    -5.6230     1.0219  0.000e+00
        492    20.7569  33.274041      3.273     5.8124    -5.4518     0.9774  0.000e+00
        493    20.7551  33.271812      3.311     5.8080    -5.5452     1.0219  0.000e+00
        494    20.7526  33.271812      3.346     5.8009    -5.5452     1.0624  0.000e+00
        495    20.7510  33.271050      3.384     5.7905    -5.4518     1.0624  0.000e+00
        496    20.7496  33.272047      3.426     5.7850    -5.4518     1.0624  0.000e+00
        497    20.7489  33.273456      3.461     5.7830    -5.4673     1.0947  0.000e+00
        498    20.7482  33.289239      3.499     5.7773    -5.4518     0.9451  0.000e+00
        499    20.7456  33.308547      3.537     5.7786    -5.4051     0.9936  0.000e+00
        500    20.7403  33.321461      3.579     5.7842    -5.4206     0.9734  0.000e+00
        501    20.7306  33.328918      3.616     5.7937    -5.4362     0.9896  0.000e+00
        502    20.7200  33.336258      3.656     5.8025    -5.4518     0.9774  0.000e+00
        503    20.7111  33.341367      3.698     5.8137    -5.4051     0.9451  0.000e+00
        504    20.7039  33.344480      3.735     5.8144    -5.4518     0.9532  0.000e+00
        505    20.6979  33.357106      3.778     5.8220    -5.4829     0.8925  0.000e+00
        506    20.6917  33.375138      3.817     5.8153    -5.4206     0.9370  0.000e+00
        507    20.6821  33.392704      3.853     5.8045    -5.4829     0.9208  0.000e+00
        508    20.6698  33.425319      3.897     5.7900    -5.4985     0.9451  0.000e+00
        509    20.6555  33.434431      3.928     5.7736    -5.5140     0.9532  0.000e+00
        510    20.6433  33.452362      3.968     5.7530    -5.5140     0.8683  0.000e+00
        511    20.6268  33.474355      4.006     5.7286    -5.4829     0.8723  0.000e+00
        512    20.6028  33.493179      4.050     5.7135    -5.4829     0.8521  0.000e+00
        513    20.5753  33.555790      4.085     5.6969    -5.5140     0.8844  0.000e+00
        514    20.5460  33.609671      4.125     5.6801    -5.4518     0.8602  0.000e+00
        515    20.5183  33.637598      4.165     5.6829    -5.4829     0.9451  0.000e+00
        516    20.4958  33.644966      4.205     5.6804    -5.4051     0.9168  0.000e+00
        517    20.4803  33.650566      4.243     5.6769    -5.4829     0.9532  0.000e+00
        518    20.4696  33.688291      4.284     5.6923    -5.5607     0.9208  0.000e+00
        519    20.4589  33.734585      4.320     5.6974    -5.4051     0.9047  0.000e+00
        520    20.4385  33.834571      4.355     5.7087    -5.5140     0.9289  0.000e+00
        521    20.4084  34.113124      4.391     5.7083    -5.5452     0.9127  0.000e+00
        522    20.3658  34.480895      4.432     5.7099    -5.3739     0.9289  0.000e+00
        523    20.3143  34.548044      4.466     5.7075    -5.4829     0.9208  0.000e+00
        524    20.2764  34.575801      4.503     5.7076    -5.4518     0.9532  0.000e+00
        525    20.2524  34.701757      4.541     5.6963    -5.3428     0.9208  0.000e+00
        526    20.2311  34.801137      4.576     5.6820    -5.3584     0.9370  0.000e+00
        527    20.2149  34.849226      4.612     5.6621    -5.4518     0.9855  0.000e+00
        528    20.2044  34.994247      4.649     5.6364    -5.3739     0.9977  0.000e+00
        529    20.1886  35.189461      4.680     5.6156    -5.3739     1.0098  0.000e+00
        530    20.1626  35.294859      4.720     5.5978    -5.5607     0.9936  0.000e+00
        531    20.1344  35.552937      4.757     5.5795    -5.3739     0.9613  0.000e+00
        532    20.0890  35.946575      4.789     5.5553    -5.4206     1.0785  0.000e+00
        533    20.0326  36.155841      4.828     5.5342    -5.4518     1.0785  0.000e+00
        534    19.9973  36.344991      4.862     5.5091    -5.4673     1.0502  0.000e+00
        535    19.9692  36.634149      4.901     5.4880    -5.4829     1.0543  0.000e+00
        536    19.9321  36.781671      4.935     5.4642    -5.5140     1.2120  0.000e+00
        537    19.8889  36.885595      4.972     5.4513    -5.4985     1.1837  0.000e+00
        538    19.8464  37.090666      5.006     5.4268    -5.5140     1.2120  0.000e+00
        539    19.7996  37.120328      5.045     5.4147    -5.5296     1.1998  0.000e+00
        540    19.7631  37.132958      5.078     5.4014    -5.4518     1.2120  0.000e+00
        541    19.7390  37.153312      5.114     5.3872    -5.4673     1.1796  0.000e+00
        542    19.7263  37.152026      5.158     5.3735    -5.5140     1.1594  0.000e+00
        543    19.7209  37.176797      5.200     5.3640    -5.4518     1.1715  0.000e+00
        544    19.7148  37.194399      5.238     5.3647    -3.1483     1.1958  0.000e+00
        545    19.7085  37.219243      5.280     5.3659    -3.2728     1.1715  0.000e+00
        546    19.7001  37.254711      5.318     5.3743    -3.3039     1.1877  0.000e+00
        547    19.6869  37.258518      5.359     5.3812    -3.2728     1.1958  0.000e+00
        548    19.6739  37.261466      5.399     5.3816    -3.2416     1.1918  0.000e+00
        549    19.6630  37.285040      5.442     5.3897    -5.4829     1.1877  0.000e+00
        550    19.6511  37.315129      5.486     5.3967    -5.4362     1.1877  0.000e+00
        551    19.6395  37.331898      5.528     5.3923    -5.5607     1.1756  0.000e+00
        552    19.6277  37.336752      5.572     5.3913    -5.4829     1.1796  0.000e+00
        553    19.6184  37.340808      5.616     5.3855    -5.1872     1.1837  0.000e+00
        554    19.6089  37.341976      5.654     5.3768    -5.3117     1.1958  0.000e+00
        555    19.5980  37.344435      5.696     5.3752    -5.1872     1.1635  0.000e+00
        556    19.5872  37.357768      5.738     5.3784    -5.1405     1.1958  0.000e+00
        557    19.5727  37.378109      5.785     5.3708    -5.4985     1.2120  0.000e+00
        558    19.5534  37.405464      5.826     5.3691    -5.5452     1.1715  0.000e+00
        559    19.5265  37.417271      5.877     5.3698    -5.3739     1.1796  0.000e+00
        560    19.4996  37.414630      5.919     5.3682    -5.3739     1.1877  0.000e+00
        561    19.4766  37.419490      5.961     5.3670    -5.4829     1.1837  0.000e+00
        562    19.4198  37.737847      6.008     5.3621    -5.5918     1.1796  0.000e+00
        563    19.2346  38.016216      6.052     5.3670    -5.6385     1.1958  0.000e+00
        564    18.9982  38.187309      6.094     5.3746    -5.5140     1.1796  0.000e+00
        565    18.7946  38.344675      6.141     5.3752    -5.4829     1.1675  0.000e+00
        566    18.6227  38.483456      6.192     5.3601    -5.4362     1.2241  0.000e+00
        567    18.4591  38.631346      6.232     5.3515    -5.4051     1.1998  0.000e+00
        568    18.2414  38.766375      6.276     5.3467    -5.5763     1.1998  0.000e+00
        569    17.9830  38.840597      6.320     5.3465    -5.5607     1.1715  0.000e+00
        570    17.7185  38.889019      6.366     5.3417    -5.4673     1.2645  0.000e+00
        571    17.4985  38.911033      6.404     5.3332    -5.4829     1.2484  0.000e+00
        572    17.3506  38.924608      6.448     5.3186    -5.4518     1.2645  0.000e+00
        573    17.2515  38.934742      6.493     5.3130    -5.4829     1.2282  0.000e+00
        574    17.1832  38.936126      6.539     5.3147    -5.5763     1.1877  0.000e+00
        575    17.1366  38.939131      6.583     5.3239    -5.5140     1.1958  0.000e+00
        576    17.1036  38.940947      6.621     5.3341    -5.4518     1.1918  0.000e+00
        577    17.0793  38.944388      6.659     5.3679    -5.5296     1.1958  0.000e+00
        578    17.0579  38.949265      6.703     5.3924    -5.4829     1.0583  0.000e+00
        579    17.0399  38.949704      6.741     5.4232    -5.3739     1.0624  0.000e+00
        580    17.0273  38.950644      6.780     5.4547    -5.4829     1.0785  0.000e+00
        581    17.0109  38.953646      6.822     5.4750    -5.5607     1.0583  0.000e+00
        582    16.9923  38.952023      6.862     5.4869    -5.5452     1.0624  0.000e+00
        583    16.9762  38.951088      6.900     5.4929    -5.5452     1.0138  0.000e+00
        584    16.9624  38.951777      6.939     5.4945    -5.4829     0.9855  0.000e+00
        585    16.9533  38.950841      6.977     5.4908    -5.4518     1.0219  0.000e+00
        586    16.9446  38.951092      7.017     5.4873    -5.4051     0.9774  0.000e+00
        587    16.9366  38.950406      7.057     5.4907    -5.4985     0.9896  0.000e+00
        588    16.9287  38.954094      7.101     5.4796    -5.5140     0.9977  0.000e+00
        589    16.9205  38.956845      7.145     5.4732    -5.5140     0.9815  0.000e+00
        590    16.9142  38.956909      7.183     5.4712    -5.4206     0.9734  0.000e+00
        591    16.9094  38.957285      7.225     5.4694    -5.7319     0.9855  0.000e+00
        592    16.9054  38.959598      7.262     5.4683    -5.8409     1.0179  0.000e+00
        593    16.9021  38.958473      7.300     5.4681    -5.6385     0.9977  0.000e+00
        594    16.8985  38.959411      7.344     5.4711    -5.7786     1.0017  0.000e+00
        595    16.8952  38.972475      7.386     5.4647    -5.4673     0.9936  0.000e+00
        596    16.8897  38.978039      7.430     5.4644    -5.6074     0.9815  0.000e+00
        597    16.8831  38.974977      7.472     5.4685    -5.4518     1.0179  0.000e+00
        598    16.8712  38.995046      7.512     5.4657    -5.4518     1.0138  0.000e+00
        599    16.8495  39.019248      7.555     5.4643    -5.5452     0.9855  0.000e+00
        600    16.8127  39.041582      7.599     5.4627    -5.7164     1.0179  0.000e+00
        601    16.7674  39.047155      7.645     5.4638    -5.8720     1.0138  0.000e+00
        602    16.7257  39.051039      7.685     5.4606    -5.7786     0.9977  0.000e+00
        603    16.6812  39.038158      7.725     5.4550    -5.8097     0.9855  0.000e+00
        604    16.6321  39.032410      7.767     5.4439    -5.4518     1.0826  0.000e+00
        605    16.5958  39.028475      7.805     5.4367    -5.4985     1.0502  0.000e+00
        606    16.5722  39.026664      7.847     5.4081    -5.3895     1.0583  0.000e+00
        607    16.5525  39.028731      7.893     5.3965    -5.4518     1.0785  0.000e+00
        608    16.5248  39.031049      7.935     5.3856    -5.4673     1.0624  0.000e+00
        609    16.4835  39.081103      7.977     5.3755    -5.4829     1.0826  0.000e+00
        610    16.4228  39.082238      8.021     5.3854    -5.4829     1.0502  0.000e+00
        611    16.3627  39.083873      8.057     5.3910    -5.4829     1.0745  0.000e+00
        612    16.3229  39.084316      8.094     5.4015    -5.5296     1.0624  0.000e+00
        613    16.2979  39.082755      8.134     5.4045    -5.4518     1.0583  0.000e+00
        614    16.2785  39.082945      8.176     5.4086    -5.5607     1.0583  0.000e+00
        615    16.2589  39.085701      8.218     5.4095    -5.5763     1.0543  0.000e+00
        616    16.2459  39.089896      8.258     5.4050    -5.4673     1.0583  0.000e+00
        617    16.2369  39.093340      8.298     5.4117    -5.4206     1.1190  0.000e+00
        618    16.2296  39.092402      8.338     5.4122    -5.4829     1.1230  0.000e+00
        619    16.2224  39.088523      8.384     5.4238    -5.5452     1.1109  0.000e+00
        620    16.2150  39.086208      8.420     5.4289    -5.4362     1.1068  0.000e+00
        621    16.2082  39.085959      8.460     5.4427    -5.5452     1.1715  0.000e+00
        622    16.2034  39.085396      8.497     5.4445    -5.5452     1.1109  0.000e+00
        623    16.2001  39.085710      8.542     5.4449    -5.4829     1.1230  0.000e+00
        624    16.1975  39.087150      8.584     5.4473    -5.5918     1.1109  0.000e+00
        625    16.1943  39.090592      8.621     5.4478    -5.5296     1.1554  0.000e+00
        626    16.1876  39.104926      8.661     5.4509    -5.5140     1.1796  0.000e+00
        627    16.1771  39.113003      8.701     5.4575    -5.5296     1.1715  0.000e+00
        628    16.1662  39.117825      8.738     5.4624    -5.5140     1.1918  0.000e+00
        629    16.1526  39.125715      8.771     5.4624    -5.4985     1.1109  0.000e+00
        630    16.1366  39.130788      8.811     5.4645    -5.4829     1.1271  0.000e+00
        631    16.1209  39.131604      8.853     5.4609    -5.4362     1.1068  0.000e+00
        632    16.1082  39.136803      8.893     5.4530    -5.4985     1.1109  0.000e+00
        633    16.0935  39.142816      8.933     5.4466    -5.4985     1.0907  0.000e+00
        634    16.0817  39.151585      8.969     5.4409    -5.4673     1.1271  0.000e+00
        635    16.0714  39.153026      9.004     5.4346    -5.4985     1.1149  0.000e+00
        636    16.0616  39.153216      9.044     5.4310    -5.5296     1.1068  0.000e+00
        637    16.0526  39.151589      9.079     5.4278    -5.4829     1.1028  0.000e+00
        638    16.0454  39.156475      9.117     5.4251    -5.5452     1.2362  0.000e+00
        639    16.0375  39.157415      9.154     5.4213    -5.4985     1.2524  0.000e+00
        640    16.0278  39.155099      9.190     5.4176    -5.5296     1.2403  0.000e+00
        641    16.0185  39.155852      9.229     5.4183    -5.3895     1.2726  0.000e+00
        642    16.0094  39.157169      9.267     5.4155    -5.4829     1.2928  0.000e+00
        643    16.0002  39.157170      9.302     5.4205    -5.5296     1.3131  0.000e+00
        644    15.9921  39.156733      9.334     5.4227    -5.4673     1.3009  0.000e+00
        645    15.9874  39.155356      9.371     5.4261    -5.4673     1.3171  0.000e+00
        646    15.9843  39.155795      9.409     5.4309    -5.5763     1.3333  0.000e+00
        647    15.9827  39.156046      9.449     5.4295    -5.5607     1.3414  0.000e+00
        648    15.9822  39.154668      9.482     5.4296    -5.4362     1.3212  0.000e+00
        649    15.9812  39.153729      9.521     5.4291    -5.4518     1.3252  0.000e+00
        650    15.9792  39.153228      9.553     5.4284    -5.4829     1.3050  0.000e+00
        651    15.9774  39.154168      9.584     5.4311    -5.4985     1.3292  0.000e+00
        652    15.9760  39.155170      9.621     5.4256    -5.5296     1.3252  0.000e+00
        653    15.9745  39.154857      9.654     5.4216    -5.4518     1.3009  0.000e+00
        654    15.9722  39.154419      9.690     5.4206    -5.4829     1.3252  0.000e+00
        655    15.9704  39.154858      9.719     5.4177    -5.5296     1.3778  0.000e+00
        656    15.9699  39.153230      9.754     5.4148    -5.5763     1.3535  0.000e+00
        657    15.9690  39.152541      9.789     5.4168    -5.4051     1.3859  0.000e+00
        658    15.9680  39.152103      9.825     5.4171    -5.4518     1.3939  0.000e+00
        659    15.9656  39.153732      9.864     5.4150    -5.4518     1.4789  0.000e+00
        660    15.9619  39.154171      9.896     5.4203    -5.4829     1.4425  0.000e+00
        661    15.9567  39.154673      9.933     5.4221    -5.4985     1.4627  0.000e+00
        662    15.9513  39.155175      9.968     5.4205    -5.5763     1.4627  0.000e+00
        663    15.9470  39.155363     10.004     5.4246    -5.4829     1.3656  0.000e+00
        664    15.9432  39.155364     10.037     5.4231    -5.4829     1.3778  0.000e+00
        665    15.9402  39.151607     10.077     5.4274    -5.4206     1.3778  0.000e+00
        666    15.9348  39.148414     10.110     5.4250    -5.5452     1.3697  0.000e+00
        667    15.9281  39.147726     10.139     5.4263    -5.5452     1.3818  0.000e+00
        668    15.9233  39.149355     10.176     5.4285    -5.7008     1.4546  0.000e+00
        669    15.9209  39.149355     10.214     5.4258    -5.7164     1.4384  0.000e+00
        670    15.9200  39.148416     10.245     5.4204    -5.8097     1.4384  0.000e+00
        671    15.9192  39.148604     10.282     5.4209    -5.8097     1.4465  0.000e+00
        672    15.9187  39.148166     10.316     5.4153    -5.4985     1.5072  0.000e+00
        673    15.9184  39.147415     10.351     5.4090    -5.4829     1.4991  0.000e+00
        674    15.9180  39.147916     10.387     5.4161    -5.4673     1.5152  0.000e+00
        675    15.9178  39.147478     10.420     5.4187    -5.4673     1.5072  0.000e+00
        676    15.9169  39.143533     10.455     5.4219    -5.8097     1.5516  0.000e+00
        677    15.9149  39.143533     10.491     5.4290    -5.8564     1.5759  0.000e+00
        678    15.9131  39.142845     10.530     5.4288    -5.7475     1.5840  0.000e+00
        679    15.9118  39.142595     10.563     5.4274    -5.7786     1.5759  0.000e+00
        680    15.9110  39.140529     10.597     5.4263    -5.5763     1.5638  0.000e+00
        681    15.9097  39.138463     10.630     5.4294    -5.4985     1.5799  0.000e+00
        682    15.9077  39.139152     10.665     5.4335    -5.5763     1.5759  0.000e+00
        683    15.9069  39.136522     10.701     5.4374    -5.6074     1.5880  0.000e+00
        684    15.9049  39.134519     10.738     5.4376    -5.6230     1.5597  0.000e+00
        685    15.9014  39.133580     10.770     5.4438    -5.4206     1.5961  0.000e+00
        686    15.8971  39.132892     10.803     5.4515    -5.5452     1.5719  0.000e+00
        687    15.8931  39.128510     10.836     5.4480    -5.4518     1.5719  0.000e+00
        688    15.8823  39.123879     10.873     5.4366    -5.4518     1.5678  0.000e+00
        689    15.8669  39.124131     10.902     5.4309    -5.5452     1.6568  0.000e+00
        690    15.8540  39.123006     10.940     5.4238    -5.4829     1.6285  0.000e+00
        691    15.8422  39.121568     10.969     5.4220    -5.5452     1.6244  0.000e+00
        692    15.8334  39.121569     11.000     5.4210    -5.5140     1.6083  0.000e+00
        693    15.8234  39.120569     11.033     5.4188    -5.5140     1.6204  0.000e+00
        694    15.8070  39.119319     11.070     5.4167    -5.5296     1.6608  0.000e+00
        695    15.7877  39.120198     11.101     5.4183    -5.4518     1.6325  0.000e+00
        696    15.7701  39.123017     11.130     5.4201    -5.4829     1.6487  0.000e+00
        697    15.7524  39.135730     11.161     5.4138    -5.5452     1.5597  0.000e+00
        698    15.7398  39.144059     11.192     5.4090    -5.4051     1.5678  0.000e+00
        699    15.7310  39.135482     11.225     5.4046    -5.6074     1.5799  0.000e+00
        700    15.7212  39.123024     11.256     5.4028    -5.6230     1.5597  0.000e+00
        701    15.7093  39.116327     11.287     5.4001    -5.4518     1.5597  0.000e+00
        702    15.6973  39.113762     11.320     5.4050    -5.5918     1.5516  0.000e+00
        703    15.6870  39.114890     11.347     5.4130    -5.6074     1.5072  0.000e+00
        704    15.6794  39.111198     11.380     5.4069    -5.4362     1.4910  0.000e+00
        705    15.6722  39.108194     11.413     5.4052    -5.4829     1.5395  0.000e+00
        706    15.6644  39.108696     11.444     5.4015    -5.4829     1.4829  0.000e+00
        707    15.6571  39.108885     11.475     5.3995    -5.5763     1.4991  0.000e+00
        708    15.6507  39.111703     11.510     5.3964    -5.3739     1.5193  0.000e+00
        709    15.6441  39.111892     11.541     5.3979    -5.5140     1.5112  0.000e+00
        710    15.6377  39.111893     11.570     5.3978    -5.6852     1.5638  0.000e+00
        711    15.6327  39.109828     11.603     5.4013    -5.7631     1.5678  0.000e+00
        712    15.6270  39.111581     11.636     5.4085    -5.8097     1.5840  0.000e+00
        713    15.6214  39.113084     11.665     5.4099    -5.7942     1.5516  0.000e+00
        714    15.6171  39.116779     11.696     5.4137    -5.7164     1.5719  0.000e+00
        715    15.6132  39.114025     11.729     5.4178    -5.6385     1.5880  0.000e+00
        716    15.6070  39.108204     11.765     5.4163    -5.8409     1.5799  0.000e+00
        717    15.5960  39.094373     11.794     5.4174    -5.7786     1.5678  0.000e+00
        718    15.5746  39.074725     11.825     5.4137    -5.7319     1.5638  0.000e+00
        719    15.5451  39.065531     11.856     5.4135    -5.4673     1.6527  0.000e+00
        720    15.5159  39.063470     11.889     5.4099    -5.6074     1.6285  0.000e+00
        721    15.4899  39.067103     11.920     5.4054    -5.5140     1.6285  0.000e+00
        722    15.4704  39.064165     11.955     5.3943    -5.5763     1.6366  0.000e+00
        723    15.4530  39.058411     11.986     5.3927    -5.7475     1.5799  0.000e+00
        724    15.4369  39.056098     12.017     5.3956    -5.7475     1.5799  0.000e+00
        725    15.4240  39.058415     12.046     5.3963    -5.7786     1.5880  0.000e+00
        726    15.4145  39.064610     12.081     5.4055    -5.8409     1.5921  0.000e+00
        727    15.4086  39.068991     12.113     5.4112    -5.5763     1.5152  0.000e+00
        728    15.4050  39.073184     12.144     5.4098    -5.5452     1.4950  0.000e+00
        729    15.4030  39.074623     12.174     5.4207    -5.5452     1.5193  0.000e+00
        730    15.4013  39.075437     12.210     5.4240    -5.5763     1.5112  0.000e+00
        731    15.3995  39.075688     12.239     5.4263    -5.6852     1.3697  0.000e+00
        732    15.3984  39.074061     12.272     5.4265    -5.8409     1.3818  0.000e+00
        733    15.3959  39.072935     12.303     5.4295    -5.7164     1.3899  0.000e+00
        734    15.3927  39.073186     12.342     5.4278    -5.8097     1.3980  0.000e+00
        735    15.3903  39.071059     12.365     5.4360    -5.7942     1.3616  0.000e+00
        736    15.3875  39.070872     12.400     5.4383    -5.7164     1.3859  0.000e+00
        737    15.3846  39.069245     12.433     5.4350    -5.7008     1.3697  0.000e+00
        738    15.3818  39.068120     12.466     5.4317    -5.7008     1.3778  0.000e+00
        739    15.3794  39.064366     12.498     5.4307    -5.7008     1.4061  0.000e+00
        740    15.3752  39.062802     12.531     5.4265    -5.7475     1.3090  0.000e+00
        741    15.3709  39.062115     12.564     5.4185    -5.7319     1.3050  0.000e+00
        742    15.3677  39.060489     12.599     5.4133    -5.7164     1.3252  0.000e+00
        743    15.3647  39.059113     12.630     5.4089    -5.7786     1.3252  0.000e+00
        744    15.3617  39.057737     12.665     5.4125    -5.5296     1.3697  0.000e+00
        745    15.3590  39.056799     12.699     5.4118    -5.3895     1.3778  0.000e+00
        746    15.3567  39.054359     12.734     5.4113    -5.5918     1.3697  0.000e+00
        747    15.3541  39.050794     12.761     5.4157    -5.5607     1.3495  0.000e+00
        748    15.3504  39.046666     12.794     5.4124    -5.4829     1.3859  0.000e+00
        749    15.3462  39.045478     12.827     5.4232    -5.4829     1.3939  0.000e+00
        750    15.3422  39.048043     12.860     5.4218    -5.4829     1.3859  0.000e+00
        751    15.3385  39.048920     12.898     5.4292    -5.5296     1.4020  0.000e+00
        752    15.3357  39.048044     12.927     5.4297    -5.6230     1.3899  0.000e+00
        753    15.3329  39.047544     12.968     5.4285    -5.5452     1.4344  0.000e+00
        754    15.3298  39.044667     13.004     5.4298    -5.5140     1.4222  0.000e+00
        755    15.3257  39.041791     13.035     5.4256    -5.4829     1.4384  0.000e+00
        756    15.3211  39.037413     13.070     5.4221    -5.3895     1.4586  0.000e+00
        757    15.3160  39.032597     13.106     5.4182    -5.5296     1.3778  0.000e+00
        758    15.3092  39.031222     13.144     5.4117    -5.5140     1.3899  0.000e+00
        759    15.3034  39.031911     13.185     5.4070    -5.4673     1.3859  0.000e+00
        760    15.2993  39.032600     13.227     5.4074    -5.4051     1.3697  0.000e+00
        761    15.2965  39.035603     13.256     5.4006    -5.6852     1.3818  0.000e+00
        762    15.2953  39.036228     13.299     5.4029    -5.7631     1.3656  0.000e+00
        763    15.2950  39.037417     13.340     5.4056    -5.7475     1.3859  0.000e+00
        764    15.2945  39.038793     13.383     5.4095    -5.7475     1.3697  0.000e+00
        765    15.2936  39.042297     13.425     5.4119    -5.4829     1.3818  0.000e+00
        766    15.2912  39.046863     13.467     5.4122    -5.4985     1.3980  0.000e+00
        767    15.2880  39.050555     13.509     5.4072    -5.5452     1.3737  0.000e+00
        768    15.2845  39.058438     13.551     5.3989    -5.5140     1.3859  0.000e+00
        769    15.2806  39.064195     13.591     5.3947    -5.5140     1.3414  0.000e+00
        770    15.2745  39.065823     13.630     5.3891    -5.8097     1.4506  0.000e+00
        771    15.2668  39.065448     13.674     5.3903    -5.7475     1.4789  0.000e+00
        772    15.2549  39.063510     13.710     5.3905    -5.7475     1.4546  0.000e+00
        773    15.2382  39.067392     13.754     5.3906    -5.6697     1.4465  0.000e+00
        774    15.2197  39.067895     13.796     5.3947    -5.4829     1.5678  0.000e+00
        775    15.2043  39.066020     13.840     5.3898    -5.4206     1.5921  0.000e+00
        776    15.1920  39.062142     13.876     5.3832    -5.4829     1.5799  0.000e+00
        777    15.1779  39.056326     13.917     5.3719    -5.5763     1.5719  0.000e+00
        778    15.1618  39.054264     13.953     5.3618    -5.4829     1.8226  0.000e+00
        779    15.1486  39.053390     13.991     5.3503    -5.4206     1.8185  0.000e+00
        780    15.1392  39.053579     14.031     5.3449    -5.5452     1.8226  0.000e+00
        781    15.1332  39.052453     14.070     5.3400    -5.5452     1.8428  0.000e+00
        782    15.1280  39.051078     14.106     5.3447    -5.6852     1.5072  0.000e+00
        783    15.1230  39.050578     14.144     5.3500    -5.7164     1.5072  0.000e+00
        784    15.1178  39.049453     14.185     5.3566    -5.7475     1.5072  0.000e+00
        785    15.1108  39.048078     14.219     5.3662    -5.7008     1.5193  0.000e+00
        786    15.1018  39.046453     14.252     5.3744    -5.7631     1.5031  0.000e+00
        787    15.0937  39.045703     14.290     5.3806    -5.7164     1.5557  0.000e+00
        788    15.0872  39.044140     14.327     5.3805    -5.7164     1.5759  0.000e+00
        789    15.0795  39.042765     14.360     5.3768    -5.7164     1.5759  0.000e+00
        790    15.0719  39.040890     14.398     5.3687    -5.7164     1.5880  0.000e+00
        791    15.0654  39.039077     14.436     5.3628    -5.4518     1.6891  0.000e+00
        792    15.0576  39.037264     14.471     5.3512    -5.5140     1.7174  0.000e+00
        793    15.0493  39.035138     14.508     5.3431    -5.4829     1.6891  0.000e+00
        794    15.0436  39.035139     14.540     5.3348    -5.5763     1.7053  0.000e+00
        795    15.0398  39.033639     14.579     5.3324    -5.4206     1.8185  0.000e+00
        796    15.0376  39.035390     14.619     5.3283    -5.5140     1.8549  0.000e+00
        797    15.0337  39.034703     14.653     5.3255    -5.5763     1.8185  0.000e+00
        798    15.0278  39.034454     14.688     5.3249    -5.4518     1.8266  0.000e+00
        799    15.0225  39.034955     14.724     5.3267    -5.5140     1.7013  0.000e+00
        800    15.0164  39.035394     14.761     5.3323    -5.5452     1.6932  0.000e+00
        801    15.0097  39.033331     14.805     5.3378    -5.5763     1.6810  0.000e+00
        802    15.0003  39.032394     14.843     5.3447    -5.5452     1.7093  0.000e+00
        803    14.9910  39.031207     14.881     5.3489    -5.5452     1.6891  0.000e+00
        804    14.9840  39.030082     14.922     5.3485    -5.5452     1.7700  0.000e+00
        805    14.9793  39.030771     14.953     5.3538    -5.5607     1.7579  0.000e+00
        806    14.9772  39.030583     14.971     5.3466    -5.4051     1.7943  0.000e+00
        807    14.9758  39.031021     14.973     5.3420    -5.6385     1.7983  0.000e+00
        808    14.9760  39.034274     14.975     5.3360    -5.5140     1.8954  0.000e+00
        809    14.9783  39.035837     14.973     5.3352    -5.4673     1.8913  0.000e+00
        810    14.9817  39.036525     14.973     5.3315    -5.4829     1.8994  0.000e+00
        811    14.9850  39.037025     14.973     5.3356    -5.5763     1.9075  0.000e+00
        812    14.9878  39.040715     14.969     5.3378    -5.5140     1.8751  0.000e+00
        813    14.9918  39.049722     14.973     5.3406    -5.5140     1.9075  0.000e+00
        814    15.0016  39.052911     14.973     5.3446    -5.5140     1.9075  0.000e+00
        815    15.0123  39.050595     14.973     5.3507    -5.5763     1.8994  0.000e+00
        816    15.0194  39.052909     14.971     5.3455    -5.3739     1.8994  0.000e+00
        817    15.0252  39.052220     14.975     5.3390    -5.4362     1.8994  0.000e+00
        818    15.0272  39.050844     14.973     5.3439    -5.5452     1.8954  0.000e+00
        819    15.0271  39.051532     14.971     5.3401    -5.5452     1.8792  0.000e+00
        820    15.0295  39.054847     14.967     5.3431    -5.6385     1.8711  0.000e+00
        821    15.0352  39.055910     14.975     5.3442    -5.4673     1.8994  0.000e+00
        822    15.0400  39.056848     14.973     5.3457    -5.4829     1.8711  0.000e+00
        823    15.0435  39.058474     14.973     5.3465    -5.5140     1.8994  0.000e+00
        824    15.0444  39.061477     14.969     5.3491    -5.4362     1.8913  0.000e+00
        825    15.0492  39.064667     14.973     5.3499    -5.5296     1.8387  0.000e+00
        826    15.0565  39.066543     14.973     5.3419    -5.4829     1.8226  0.000e+00
        827    15.0655  39.069546     14.973     5.3402    -5.5140     1.8387  0.000e+00
        828    15.0756  39.072298     14.974     5.3362    -5.5140     1.8307  0.000e+00
        829    15.0825  39.070920     14.971     5.3321    -5.1094     1.8307  0.000e+00
        830    15.0846  39.072046     14.973     5.3318    -5.2183     1.8347  0.000e+00
        831    15.0849  39.076927     14.971     5.3335    -5.1716     1.8104  0.000e+00
        832    15.0906  39.081056     14.973     5.3306    -5.2339     1.8104  0.000e+00
        833    15.1032  39.084309     14.971     5.3314    -5.4362     1.8307  0.000e+00
        834    15.1108  39.083619     14.975     5.3373    -5.5607     1.8307  0.000e+00
        835    15.1157  39.081491     14.971     5.3423    -5.5452     1.8185  0.000e+00
        836    15.1191  39.085183     14.973     5.3420    -5.4985     1.8185  0.000e+00
        837    15.1281  39.085557     14.973     5.3444    -5.5140     1.8064  0.000e+00
        838    15.1308  39.084493     14.975     5.3422    -5.6074     1.8064  0.000e+00
        839    15.1248  39.079925     14.971     5.3454    -5.5296     1.8185  0.000e+00
        840    15.1207  39.078737     14.969     5.3497    -5.3739     1.8226  0.000e+00
        841    15.1278  39.081490     14.971     5.3515    -5.5763     1.8387  0.000e+00
        842    15.1360  39.087997     14.971     5.3547    -5.6230     1.7943  0.000e+00
        843    15.1461  39.086369     14.973     5.3560    -5.3895     1.8185  0.000e+00
        844    15.1530  39.086117     14.971     5.3595    -5.5140     1.8468  0.000e+00
        845    15.1502  39.086118     14.967     5.3583    -5.4673     1.8266  0.000e+00
        846    15.1498  39.085054     14.969     5.3571    -5.4518     1.8509  0.000e+00
        847    15.1438  39.087057     14.973     5.3553    -5.4518     1.8509  0.000e+00
        848    15.1406  39.088184     14.971     5.3487    -5.4673     1.8226  0.000e+00
        849    15.1525  39.083614     14.969     5.3473    -5.5452     1.8185  0.000e+00
        850    15.1549  39.078983     14.973     5.3466    -5.4673     1.8549  0.000e+00
        851    15.1439  39.085868     14.971     5.3428    -5.4829     1.8509  0.000e+00
        852    15.1382  39.097447     14.969     5.3388    -5.5140     1.8185  0.000e+00
        853    15.1414  39.094881     14.971     5.3331    -5.4518     1.8468  0.000e+00
        854    15.1493  39.091688     14.973     5.3329    -5.4206     1.8226  0.000e+00
        855    15.1595  39.090873     14.969     5.3328    -5.4673     1.8185  0.000e+00
        856    15.1599  39.093314     14.969     5.3389    -5.4673     1.8064  0.000e+00
        857    15.1590  39.092563     14.971     5.3431    -5.5296     1.8023  0.000e+00
        858    15.1587  39.089559     14.971     5.3504    -5.5140     1.8347  0.000e+00
        859    15.1567  39.088683     14.974     5.3530    -5.7631     1.7660  0.000e+00
        860    15.1532  39.084052     14.971     5.3644    -5.6541     1.7700  0.000e+00
        861    15.1405  39.088685     14.969     5.3682    -5.8097     1.7740  0.000e+00
        862    15.1293  39.085432     14.971     5.3721    -5.7475     1.7700  0.000e+00
        863    15.1271  39.085683     14.971     5.3666    -5.4829     1.7740  0.000e+00
        864    15.1267  39.082679     14.973     5.3638    -5.5607     1.7579  0.000e+00
        865    15.1300  39.089562     14.974     5.3589    -5.5296     1.7417  0.000e+00
        866    15.1379  39.091689     14.971     5.3575    -5.4518     1.7781  0.000e+00
        867    15.1421  39.092565     14.973     5.3551    -5.4518     1.8307  0.000e+00
        868    15.1345  39.090062     14.971     5.3447    -5.5140     1.8226  0.000e+00
        869    15.1263  39.089813     14.971     5.3502    -5.5763     1.8549  0.000e+00
        870    15.1293  39.089124     14.974     5.3495    -5.4206     1.8387  0.000e+00
        871    15.1310  39.090063     14.973     5.3524    -5.4829     1.8387  0.000e+00
        872    15.1195  39.091441     14.971     5.3561    -5.4829     1.9520  0.000e+00
        873    15.1114  39.089189     14.971     5.3620    -5.4518     1.9560  0.000e+00
        874    15.1074  39.086624     14.969     5.3639    -5.4829     1.9722  0.000e+00
        875    15.1060  39.084997     14.971     5.3626    -5.4518     1.9520  0.000e+00
        876    15.1159  39.086372     14.969     5.3631    -5.5140     1.8913  0.000e+00
        877    15.1275  39.086371     14.974     5.3638    -5.4829     1.9156  0.000e+00
        878    15.1348  39.086620     14.971     5.3648    -5.4051     1.8913  0.000e+00
        879    15.1376  39.086119     14.973     5.3626    -5.4829     1.8711  0.000e+00
        880    15.1388  39.087308     14.973     5.3595    -5.5296     2.0369  0.000e+00
        881    15.1388  39.087997     14.973     5.3602    -5.5607     2.0328  0.000e+00
        882    15.1369  39.090062     14.973     5.3626    -5.6230     2.0247  0.000e+00
        883    15.1364  39.093755     14.969     5.3608    -5.4051     2.0247  0.000e+00
        884    15.1382  39.095131     14.973     5.3583    -5.4829     1.9075  0.000e+00
        885    15.1399  39.092815     14.969     5.3615    -5.6385     1.8954  0.000e+00
        886    15.1413  39.091438     14.973     5.3592    -5.5452     1.8792  0.000e+00
        887    15.1442  39.091688     14.971     5.3582    -5.5140     1.9075  0.000e+00
        888    15.1468  39.090311     14.973     5.3600    -5.5296     1.9034  0.000e+00
        889    15.1499  39.086806     14.969     5.3574    -5.6852     1.9560  0.000e+00
        890    15.1493  39.083364     14.958     5.3668    -5.6385     1.9600  0.000e+00
        891    15.1509  39.093315     14.934     5.3621    -5.8097     1.9924  0.000e+00
        892    15.1633  39.072724     14.900     5.3591    -5.7786     1.9237  0.000e+00
        893    15.1847  39.082671     14.860     5.3584    -5.5763     1.9600  0.000e+00
        894    15.2044  39.093745     14.819     5.3599    -5.5296     1.9722  0.000e+00
        895    15.2173  39.109204     14.781     5.3610    -5.4985     1.9479  0.000e+00
        896    15.2291  39.148020     14.745     5.3642    -5.5452     1.9600  0.000e+00
        897    15.2520  39.149896     14.706     5.3650    -5.5452     1.7700  0.000e+00
        898    15.2692  39.145009     14.670     5.3691    -5.6074     1.7579  0.000e+00
        899    15.2776  39.147826     14.633     5.3755    -5.4829     1.7781  0.000e+00
        900    15.2821  39.163043     14.599     5.3766    -5.4051     1.7579  0.000e+00
        901    15.2880  39.144317     14.562     5.3763    -5.7475     1.8387  0.000e+00
        902    15.2859  39.135301     14.520     5.3721    -5.8409     1.8226  0.000e+00
        903    15.2800  39.125847     14.489     5.3692    -5.8253     1.8468  0.000e+00
        904    15.2772  39.131858     14.455     5.3645    -5.7475     1.8387  0.000e+00
        905    15.2759  39.139684     14.414     5.3642    -5.7475     1.8428  0.000e+00
        906    15.2754  39.141312     14.383     5.3648    -5.5607     1.7700  0.000e+00
        907    15.2779  39.142690     14.349     5.3591    -5.4829     1.7781  0.000e+00
        908    15.2806  39.140623     14.307     5.3561    -5.5296     1.7498  0.000e+00
        909    15.2786  39.126285     14.272     5.3571    -5.5452     1.7579  0.000e+00
        910    15.2685  39.121590     14.239     5.3606    -5.7631     1.8468  0.000e+00
        911    15.2580  39.117960     14.204     5.3654    -5.8097     1.8185  0.000e+00
        912    15.2464  39.115207     14.168     5.3707    -5.7631     1.8064  0.000e+00
        913    15.2352  39.120279     14.126     5.3746    -5.7164     1.8307  0.000e+00
        914    15.2306  39.113581     14.091     5.3812    -5.6385     1.9156  0.000e+00
        915    15.2243  39.106696     14.053     5.3855    -5.3895     1.9196  0.000e+00
        916    15.2134  39.104820     14.015     5.3856    -5.5607     1.8954  0.000e+00
        917    15.2072  39.104570     13.978     5.3732    -5.4362     1.8994  0.000e+00
        918    15.2040  39.106198     13.943     5.3661    -5.4829     1.9196  0.000e+00
        919    15.2011  39.107325     13.907     5.3555    -5.4985     1.8913  0.000e+00
        920    15.1985  39.111269     13.869     5.3518    -5.4985     1.8994  0.000e+00
        921    15.1994  39.113835     13.828     5.3444    -5.3739     1.9075  0.000e+00
        922    15.2020  39.105509     13.788     5.3406    -5.5918     1.8913  0.000e+00
        923    15.1985  39.106448     13.743     5.3423    -5.5452     1.8913  0.000e+00
        924    15.1940  39.099063     13.706     5.3480    -5.4518     1.9075  0.000e+00
        925    15.1879  39.090051     13.666     5.3523    -5.4362     1.9237  0.000e+00
        926    15.1783  39.084732     13.629     5.3532    -5.5140     1.8994  0.000e+00
        927    15.1705  39.087049     13.589     5.3569    -5.4518     1.8590  0.000e+00
        928    15.1679  39.096937     13.547     5.3531    -5.5140     1.8307  0.000e+00
        929    15.1697  39.100692     13.504     5.3558    -5.5918     1.8428  0.000e+00
        930    15.1711  39.084733     13.469     5.3581    -5.4673     1.8226  0.000e+00
        931    15.1670  39.080102     13.425     5.3530    -5.5452     1.8549  0.000e+00
        932    15.1634  39.081729     13.387     5.3538    -5.4518     1.8428  0.000e+00
        933    15.1618  39.081980     13.350     5.3536    -5.4985     1.8307  0.000e+00
        934    15.1607  39.078288     13.307     5.3536    -5.4362     1.8307  0.000e+00
        935    15.1594  39.079414     13.268     5.3573    -5.5140     1.7174  0.000e+00
        936    15.1594  39.082918     13.228     5.3558    -5.4673     1.6932  0.000e+00
        937    15.1615  39.083857     13.193     5.3545    -5.5452     1.6972  0.000e+00
        938    15.1631  39.082667     13.151     5.3559    -5.4985     1.7053  0.000e+00
        939    15.1656  39.084732     13.106     5.3598    -5.4051     1.6932  0.000e+00
        940    15.1688  39.082416     13.066     5.3603    -5.4829     1.6851  0.000e+00
        941    15.1687  39.077097     13.024     5.3646    -5.5452     1.6972  0.000e+00
        942    15.1691  39.076220     12.984     5.3692    -5.4362     1.7053  0.000e+00
        943    15.1714  39.076658     12.942     5.3686    -5.6074     1.7093  0.000e+00
        944    15.1738  39.078034     12.898     5.3704    -5.7164     1.6649  0.000e+00
        945    15.1745  39.075281     12.859     5.3694    -5.7786     1.6366  0.000e+00
        946    15.1786  39.077533     12.819     5.3699    -5.7164     1.6366  0.000e+00
        947    15.1831  39.077595     12.785     5.3682    -5.7475     1.6285  0.000e+00
        948    15.1892  39.072963     12.752     5.3671    -5.4829     1.5395  0.000e+00
        949    15.1984  39.073400     12.721     5.3589    -5.5296     1.5638  0.000e+00
        950    15.2054  39.071334     12.681     5.3518    -5.5296     1.5719  0.000e+00
        951    15.2099  39.068830     12.642     5.3551    -5.4518     1.5719  0.000e+00
        952    15.2127  39.072021     12.613     5.3521    -5.5763     1.5152  0.000e+00
        953    15.2149  39.072709     12.580     5.3581    -5.5918     1.5031  0.000e+00
        954    15.2200  39.072958     12.544     5.3602    -5.4829     1.5072  0.000e+00
        955    15.2249  39.070330     12.513     5.3575    -5.4829     1.5152  0.000e+00
        956    15.2293  39.066700     12.480     5.3569    -5.4829     1.4910  0.000e+00
        957    15.2348  39.063008     12.447     5.3641    -5.4518     1.5719  0.000e+00
        958    15.2410  39.062131     12.412     5.3717    -5.4518     1.5961  0.000e+00
        959    15.2462  39.061442     12.381     5.3704    -5.5452     1.5516  0.000e+00
        960    15.2500  39.063256     12.350     5.3766    -5.4985     1.5355  0.000e+00
        961    15.2512  39.064382     12.316     5.3852    -5.3895     1.5274  0.000e+00
        962    15.2509  39.063693     12.283     5.3958    -5.5918     1.5072  0.000e+00
        963    15.2512  39.060878     12.252     5.4002    -5.5452     1.5031  0.000e+00
        964    15.2547  39.059125     12.223     5.4021    -5.4518     1.4829  0.000e+00
        965    15.2603  39.057748     12.190     5.4056    -5.8097     1.5355  0.000e+00
        966    15.2670  39.062565     12.162     5.4029    -5.7786     1.5193  0.000e+00
        967    15.2715  39.060937     12.126     5.4020    -5.7475     1.4950  0.000e+00
        968    15.2744  39.057746     12.095     5.4025    -5.7475     1.5112  0.000e+00
        969    15.2777  39.058871     12.067     5.3999    -5.4206     1.4950  0.000e+00
        970    15.2816  39.057494     12.033     5.3963    -5.5763     1.4950  0.000e+00
        971    15.2873  39.056555     12.000     5.3903    -5.5918     1.5152  0.000e+00
        972    15.2927  39.056742     11.967     5.3851    -5.4829     1.4991  0.000e+00
        973    15.2982  39.058430     11.936     5.3816    -5.5296     1.4950  0.000e+00
        974    15.3034  39.059994     11.901     5.3784    -5.5452     1.4384  0.000e+00
        975    15.3086  39.060243     11.872     5.3783    -5.4051     1.4627  0.000e+00
        976    15.3146  39.060242     11.836     5.3856    -5.4829     1.4303  0.000e+00
        977    15.3212  39.060930     11.806     5.3924    -5.5140     1.4465  0.000e+00
        978    15.3271  39.060678     11.775     5.3995    -5.4829     1.5638  0.000e+00
        979    15.3292  39.059990     11.743     5.4050    -5.6230     1.5638  0.000e+00
        980    15.3282  39.060365     11.710     5.4171    -5.5140     1.5759  0.000e+00
        981    15.3304  39.060240     11.681     5.4263    -5.3895     1.5638  0.000e+00
        982    15.3334  39.060239     11.640     5.4302    -5.8097     1.4425  0.000e+00
        983    15.3353  39.062804     11.615     5.4338    -5.7475     1.4384  0.000e+00
        984    15.3376  39.062303     11.584     5.4278    -5.6541     1.4344  0.000e+00
        985    15.3399  39.063929     11.553     5.4309    -5.7475     1.4627  0.000e+00
        986    15.3410  39.061865     11.522     5.4239    -5.7786     1.4991  0.000e+00
        987    15.3429  39.060926     11.489     5.4196    -5.8409     1.5072  0.000e+00
        988    15.3446  39.060612     11.456     5.4120    -5.7164     1.4910  0.000e+00
        989    15.3483  39.061863     11.425     5.4134    -5.7164     1.4991  0.000e+00
        990    15.3525  39.062801     11.392     5.4111    -5.8564     1.4991  0.000e+00
        991    15.3596  39.064614     11.359     5.4161    -5.5763     1.5072  0.000e+00
        992    15.3721  39.070181     11.330     5.4152    -5.4829     1.5233  0.000e+00
        993    15.3846  39.072495     11.297     5.4107    -5.4829     1.4991  0.000e+00
        994    15.4026  39.075246     11.268     5.4166    -5.5607     1.5072  0.000e+00
        995    15.4179  39.073179     11.233     5.4177    -5.6385     1.5678  0.000e+00
        996    15.4173  39.073867     11.204     5.4180    -5.7786     1.5638  0.000e+00
        997    15.4099  39.070051     11.173     5.4143    -5.6697     1.5880  0.000e+00
        998    15.4089  39.069237     11.139     5.4144    -5.5918     1.5880  0.000e+00
        999    15.4120  39.069487     11.108     5.4151    -5.7786     1.6568  0.000e+00
       1000    15.4147  39.072490     11.077     5.4137    -5.8253     1.6002  0.000e+00
       1001    15.4201  39.071989     11.049     5.4152    -5.7631     1.6366  0.000e+00
       1002    15.4294  39.074303     11.018     5.4135    -5.7319     1.6366  0.000e+00
       1003    15.4312  39.076367     10.984     5.4150    -5.7942     1.6083  0.000e+00
       1004    15.4325  39.074052     10.953     5.4135    -5.7631     1.6204  0.000e+00
       1005    15.4423  39.074739     10.916     5.4208    -5.7008     1.6244  0.000e+00
       1006    15.4520  39.078993     10.881     5.4184    -5.7475     1.6204  0.000e+00
       1007    15.4595  39.081682     10.850     5.4192    -5.7475     1.6285  0.000e+00
       1008    15.4693  39.083058     10.819     5.4275    -5.7786     1.5759  0.000e+00
       1009    15.4841  39.082618     10.785     5.4282    -5.7786     1.5961  0.000e+00
       1010    15.4957  39.084932     10.750     5.4264    -5.8253     1.5961  0.000e+00
       1011    15.5098  39.086744     10.713     5.4285    -5.7319     1.5678  0.000e+00
       1012    15.5248  39.088119     10.681     5.4278    -5.5140     1.5759  0.000e+00
       1013    15.5389  39.089995     10.644     5.4195    -5.4985     1.5880  0.000e+00
       1014    15.5533  39.089868     10.611     5.4184    -5.4829     1.5880  0.000e+00
       1015    15.5634  39.092057     10.575     5.4158    -5.4829     1.5638  0.000e+00
       1016    15.5706  39.094371     10.540     5.4099    -5.8097     1.6123  0.000e+00
       1017    15.5820  39.095496     10.509     5.4134    -5.8097     1.6244  0.000e+00
       1018    15.5932  39.095996     10.471     5.4091    -5.7164     1.6406  0.000e+00
       1019    15.5981  39.096433     10.436     5.4055    -5.6852     1.6446  0.000e+00
       1020    15.6065  39.102002     10.401     5.4073    -5.7164     1.7013  0.000e+00
       1021    15.6291  39.104315     10.368     5.4073    -5.6385     1.6891  0.000e+00
       1022    15.6631  39.109131     10.330     5.4088    -5.6852     1.6972  0.000e+00
       1023    15.6851  39.111882     10.297     5.4088    -5.7319     1.7053  0.000e+00
       1024    15.7030  39.112568     10.261     5.4110    -5.6074     1.6891  0.000e+00
       1025    15.7279  39.114005     10.231     5.4156    -5.4206     1.6810  0.000e+00
       1026    15.7471  39.120888     10.200     5.4236    -5.4985     1.6891  0.000e+00
       1027    15.7532  39.123892     10.166     5.4285    -5.5763     1.7013  0.000e+00
       1028    15.7561  39.123454     10.137     5.4300    -5.5607     1.6932  0.000e+00
       1029    15.7560  39.123704     10.100     5.4287    -5.7475     1.7619  0.000e+00
       1030    15.7641  39.121825     10.066     5.4271    -5.8097     1.7579  0.000e+00
       1031    15.7784  39.123701     10.035     5.4283    -5.8253     1.7255  0.000e+00
       1032    15.7904  39.124576     10.000     5.4286    -5.7164     1.7579  0.000e+00
       1033    15.7994  39.129771      9.969     5.4251    -5.7786     1.6851  0.000e+00
       1034    15.8012  39.130585      9.934     5.4252    -5.7786     1.6810  0.000e+00
       1035    15.8080  39.133401      9.901     5.4252    -5.7786     1.7174  0.000e+00
       1036    15.8109  39.131522      9.867     5.4295    -5.6697     1.6891  0.000e+00
       1037    15.8153  39.129017      9.830     5.4353    -5.5763     1.6649  0.000e+00
       1038    15.8278  39.130142      9.796     5.4322    -5.4985     1.6810  0.000e+00
       1039    15.8461  39.131768      9.766     5.4269    -5.5452     1.6972  0.000e+00
       1040    15.8563  39.132017      9.728     5.4260    -5.5296     1.6810  0.000e+00
       1041    15.8572  39.134521      9.692     5.4226    -5.5452     1.7053  0.000e+00
       1042    15.8569  39.134270      9.659     5.4170    -5.4518     1.7498  0.000e+00
       1043    15.8651  39.131640      9.624     5.4107    -5.5452     1.7579  0.000e+00
       1044    15.8733  39.134769      9.589     5.4079    -5.4985     1.7700  0.000e+00
       1045    15.8753  39.136835      9.555     5.4098    -5.5140     1.7700  0.000e+00
       1046    15.8781  39.136396      9.522     5.4145    -5.4518     1.7093  0.000e+00
       1047    15.8855  39.132889      9.483     5.4116    -5.4829     1.6972  0.000e+00
       1048    15.8972  39.135893      9.449     5.4164    -5.3739     1.7093  0.000e+00
       1049    15.8998  39.131071      9.410     5.4213    -5.5452     1.6891  0.000e+00
       1050    15.8996  39.132010      9.374     5.4249    -5.5140     1.7013  0.000e+00
       1051    15.9011  39.131759      9.336     5.4231    -5.4518     1.7013  0.000e+00
       1052    15.9071  39.133574      9.297     5.4229    -5.4518     1.6972  0.000e+00
       1053    15.9111  39.133386      9.270     5.4172    -5.4362     1.7013  0.000e+00
       1054    15.9129  39.134262      9.231     5.4164    -5.5296     1.6446  0.000e+00
       1055    15.9133  39.138457      9.189     5.4162    -5.4051     1.6204  0.000e+00
       1056    15.9103  39.139396      9.153     5.4234    -5.4829     1.6325  0.000e+00
       1057    15.9142  39.135013      9.116     5.4204    -5.4985     1.6487  0.000e+00
       1058    15.9250  39.132882      9.082     5.4225    -5.7786     1.5961  0.000e+00
       1059    15.9347  39.133382      9.042     5.4189    -5.6852     1.6244  0.000e+00
       1060    15.9380  39.137514      9.011     5.4220    -5.6852     1.6527  0.000e+00
       1061    15.9379  39.138453      8.972     5.4209    -5.7786     1.6325  0.000e+00
       1062    15.9393  39.141896      8.936     5.4227    -5.7475     1.6123  0.000e+00
       1063    15.9385  39.141333      8.896     5.4247    -5.5140     1.6406  0.000e+00
       1064    15.9418  39.137262      8.857     5.4225    -5.5140     1.6244  0.000e+00
       1065    15.9470  39.136385      8.814     5.4217    -5.5452     1.6083  0.000e+00
       1066    15.9498  39.139139      8.773     5.4182    -5.4518     1.6285  0.000e+00
       1067    15.9511  39.137761      8.739     5.4167    -5.6385     1.5152  0.000e+00
       1068    15.9569  39.136571      8.702     5.4157    -5.5140     1.4910  0.000e+00
       1069    15.9629  39.136132      8.664     5.4161    -5.5763     1.5152  0.000e+00
       1070    15.9659  39.137509      8.626     5.4169    -5.4829     1.4910  0.000e+00
       1071    15.9679  39.135880      8.584     5.4190    -5.6074     1.5274  0.000e+00
       1072    15.9752  39.131997      8.549     5.4189    -5.5763     1.4991  0.000e+00
       1073    15.9835  39.131182      8.507     5.4235    -5.5452     1.4991  0.000e+00
       1074    15.9882  39.130806      8.469     5.4250    -5.5452     1.4991  0.000e+00
       1075    15.9940  39.123855      8.425     5.4247    -5.5918     1.4789  0.000e+00
       1076    16.0014  39.124355      8.385     5.4277    -5.5140     1.4222  0.000e+00
       1077    16.0080  39.121349      8.346     5.4270    -5.5140     1.4627  0.000e+00
       1078    16.0145  39.118781      8.312     5.4291    -5.5296     1.4546  0.000e+00
       1079    16.0228  39.116714      8.268     5.4335    -5.4829     1.4546  0.000e+00
       1080    16.0314  39.117840      8.228     5.4344    -5.5296     1.4465  0.000e+00
       1081    16.0395  39.101939      8.184     5.4319    -5.4985     1.4506  0.000e+00
       1082    16.0534  39.099684      8.144     5.4306    -5.4829     1.4506  0.000e+00
       1083    16.0630  39.104439      8.102     5.4306    -5.5296     1.4667  0.000e+00
       1084    16.0675  39.101935      8.063     5.4246    -5.5296     1.4020  0.000e+00
       1085    16.0701  39.100557      8.027     5.4253    -5.5452     1.3697  0.000e+00
       1086    16.0730  39.096614      7.983     5.4245    -5.4829     1.4101  0.000e+00
       1087    16.0786  39.092670      7.936     5.4275    -5.5140     1.3818  0.000e+00
       1088    16.0872  39.085534      7.894     5.4290    -5.5140     1.2928  0.000e+00
       1089    16.0999  39.081339      7.854     5.4320    -5.5296     1.3212  0.000e+00
       1090    16.1105  39.079961      7.815     5.4383    -5.5140     1.3171  0.000e+00
       1091    16.1192  39.079835      7.775     5.4481    -5.5296     1.3171  0.000e+00
       1092    16.1249  39.081836      7.733     5.4546    -5.4985     1.3090  0.000e+00
       1093    16.1250  39.080898      7.689     5.4604    -5.4829     1.3373  0.000e+00
       1094    16.1254  39.070948      7.647     5.4640    -5.5452     1.3212  0.000e+00
       1095    16.1369  39.064251      7.603     5.4565    -5.5452     1.2969  0.000e+00
       1096    16.1518  39.058306      7.562     5.4489    -5.4829     1.3009  0.000e+00
       1097    16.1688  39.058741      7.521     5.4431    -5.4829     1.3131  0.000e+00
       1098    16.1855  39.053234      7.481     5.4358    -5.5296     1.3171  0.000e+00
       1099    16.2044  39.058299      7.439     5.4304    -5.4829     1.3131  0.000e+00
       1100    16.2125  39.045035      7.397     5.4346    -5.4051     1.3090  0.000e+00
       1101    16.2332  39.044219      7.359     5.4348    -5.4673     1.3171  0.000e+00
       1102    16.2540  39.049033      7.313     5.4413    -5.5296     1.3131  0.000e+00
       1103    16.2708  39.032642      7.272     5.4435    -5.5452     1.3131  0.000e+00
       1104    16.2985  39.029886      7.231     5.4446    -5.4829     1.3252  0.000e+00
       1105    16.3167  39.022504      7.184     5.4434    -5.5607     1.2322  0.000e+00
       1106    16.3381  39.010994      7.144     5.4473    -5.4829     1.2807  0.000e+00
       1107    16.3744  39.013741      7.104     5.4451    -5.4518     1.2362  0.000e+00
       1108    16.3892  39.001045      7.062     5.4481    -5.4673     1.2524  0.000e+00
       1109    16.4139  39.003418      7.018     5.4461    -5.4518     1.3131  0.000e+00
       1110    16.4415  38.990472      6.976     5.4458    -5.5140     1.3090  0.000e+00
       1111    16.4741  38.978778      6.932     5.4470    -5.5452     1.3333  0.000e+00
       1112    16.5118  38.970709      6.887     5.4447    -5.6074     1.3090  0.000e+00
       1113    16.5430  38.962392      6.843     5.4511    -5.3739     1.3373  0.000e+00
       1114    16.5739  38.950889      6.803     5.4475    -5.5452     1.2524  0.000e+00
       1115    16.6006  38.949948      6.761     5.4471    -5.5140     1.2484  0.000e+00
       1116    16.6147  38.953883      6.715     5.4466    -5.4829     1.2403  0.000e+00
       1117    16.6286  38.966318      6.667     5.4427    -5.4829     1.2565  0.000e+00
       1118    16.6327  38.951630      6.625     5.4395    -5.4985     1.1958  0.000e+00
       1119    16.6544  38.932069      6.578     5.4331    -5.4518     1.1918  0.000e+00
       1120    16.6902  38.933876      6.534     5.4206    -5.6074     1.2120  0.000e+00
       1121    16.7017  38.937561      6.492     5.4246    -5.5140     1.1998  0.000e+00
       1122    16.6993  38.937311      6.452     5.4269    -5.4362     1.1837  0.000e+00
       1123    16.7060  38.928813      6.397     5.4377    -5.4518     1.1958  0.000e+00
       1124    16.7264  38.925624      6.353     5.4435    -5.5763     1.1877  0.000e+00
       1125    16.7514  38.906317      6.311     5.4467    -5.6074     1.1796  0.000e+00
       1126    16.7743  38.897382      6.269     5.4572    -5.5452     1.1998  0.000e+00
       1127    16.7940  38.893695      6.231     5.4658    -5.4206     1.1756  0.000e+00
       1128    16.8134  38.906122      6.191     5.4826    -5.4829     1.1756  0.000e+00
       1129    16.8100  38.917366      6.153     5.4668    -5.5452     1.1675  0.000e+00
       1130    16.7909  38.914557      6.109     5.4768    -5.4829     1.1998  0.000e+00
       1131    16.7902  38.907498      6.065     5.4716    -5.4518     1.1635  0.000e+00
       1132    16.8032  38.896191      6.027     5.4700    -5.5607     1.1877  0.000e+00
       1133    16.8147  38.890256      5.988     5.4692    -5.5452     1.1877  0.000e+00
       1134    16.8354  38.877389      5.950     5.4651    -5.5296     1.1756  0.000e+00
       1135    16.8647  38.874887      5.910     5.4570    -5.5452     1.2403  0.000e+00
       1136    16.8912  38.861335      5.873     5.4522    -5.4206     1.2201  0.000e+00
       1137    16.9221  38.853090      5.831     5.4587    -5.4518     1.2565  0.000e+00
       1138    16.9566  38.839352      5.791     5.4586    -5.5140     1.2686  0.000e+00
       1139    16.9928  38.800405      5.753     5.4605    -5.4362     1.1675  0.000e+00
       1140    17.0467  38.750870      5.711     5.4602    -5.4362     1.1998  0.000e+00
       1141    17.1267  38.767013      5.682     5.4530    -5.5918     1.1958  0.000e+00
       1142    17.1696  38.739817      5.651     5.4557    -5.4206     1.1675  0.000e+00
       1143    17.2068  38.702843      5.618     5.4616    -5.4673     1.3899  0.000e+00
       1144    17.2473  38.696418      5.576     5.4566    -5.5140     1.3818  0.000e+00
       1145    17.2816  38.582300      5.538     5.4530    -5.5140     1.3656  0.000e+00
       1146    17.3802  38.413675      5.503     5.4436    -5.4518     1.3616  0.000e+00
       1147    17.5187  38.362841      5.468     5.4306    -5.5140     1.3859  0.000e+00
       1148    17.6501  38.157413      5.428     5.4308    -5.4362     1.3778  0.000e+00
       1149    17.8484  38.067077      5.394     5.4312    -5.4362     1.3616  0.000e+00
       1150    18.0394  38.027810      5.352     5.4309    -5.5140     1.3818  0.000e+00
       1151    18.1902  37.953866      5.317     5.4472    -5.4051     1.3778  0.000e+00
       1152    18.3172  37.728295      5.279     5.4612    -5.5607     1.3737  0.000e+00
       1153    18.4845  37.707056      5.242     5.4655    -5.5607     1.3899  0.000e+00
       1154    18.6106  37.800584      5.209     5.4597    -5.4829     1.3697  0.000e+00
       1155    18.6332  37.763671      5.177     5.4686    -5.5140     1.3859  0.000e+00
       1156    18.6654  37.564984      5.142     5.4648    -5.6074     1.3859  0.000e+00
       1157    18.7846  37.593116      5.102     5.4380    -5.5140     1.3899  0.000e+00
       1158    18.8671  37.540515      5.067     5.4270    -5.4829     1.3859  0.000e+00
       1159    18.9363  37.397422      5.032     5.4229    -5.5452     1.3737  0.000e+00
       1160    19.0396  37.368155      4.996     5.4157    -5.5296     1.3212  0.000e+00
       1161    19.1198  37.398075      4.961     5.4140    -5.4985     1.3050  0.000e+00
       1162    19.1328  37.352782      4.917     5.4239    -5.5140     1.2928  0.000e+00
       1163    19.1588  37.297317      4.884     5.4328    -5.5140     1.3212  0.000e+00
       1164    19.2243  37.385339      4.846     5.4286    -5.4829     1.3090  0.000e+00
       1165    19.2064  37.227524      4.810     5.4431    -5.5918     1.3818  0.000e+00
       1166    19.2093  37.182929      4.773     5.4399    -5.4362     1.3818  0.000e+00
       1167    19.2271  37.180106      4.735     5.4343    -5.4051     1.3737  0.000e+00
       1168    19.2261  37.185747      4.698     5.4341    -5.6074     1.3859  0.000e+00
       1169    19.2022  37.066423      4.658     5.4359    -5.4829     1.2484  0.000e+00
       1170    19.2115  36.927617      4.629     5.4269    -5.4829     1.2524  0.000e+00
       1171    19.2530  36.893127      4.594     5.4231    -5.5140     1.2807  0.000e+00
       1172    19.2831  36.769659      4.561     5.4226    -5.5918     1.2565  0.000e+00
       1173    19.3150  36.374364      4.520     5.4294    -5.5140     1.3939  0.000e+00
       1174    19.3988  36.222277      4.483     5.4328    -5.4673     1.3818  0.000e+00
       1175    19.4838  36.194357      4.450     5.4312    -5.5763     1.3980  0.000e+00
       1176    19.5335  36.185677      4.414     5.4382    -5.4985     1.3535  0.000e+00
       1177    19.5621  35.947966      4.373     5.4601    -5.4829     1.3131  0.000e+00
       1178    19.6128  35.819555      4.333     5.4707    -5.5763     1.3131  0.000e+00
       1179    19.6581  35.751250      4.300     5.4823    -5.5452     1.3252  0.000e+00
       1180    19.6870  35.633191      4.264     5.4983    -5.4362     1.3212  0.000e+00
       1181    19.7133  35.505896      4.229     5.5180    -5.3584     1.3252  0.000e+00
       1182    19.7466  35.667010      4.195     5.5257    -5.5296     1.3656  0.000e+00
       1183    19.7459  35.597502      4.154     5.5402    -5.4518     1.3697  0.000e+00
       1184    19.7520  35.208286      4.116     5.5575    -5.6074     1.3859  0.000e+00
       1185    19.8062  35.057516      4.085     5.5615    -5.4829     1.3899  0.000e+00
       1186    19.8568  35.069011      4.047     5.5600    -5.4829     1.3212  0.000e+00
       1187    19.8905  34.959095      4.017     5.5692    -5.4518     1.3333  0.000e+00
       1188    19.9203  35.112384      3.975     5.5694    -5.4673     1.3252  0.000e+00
       1189    19.9240  34.869097      3.941     5.5849    -5.3584     1.3131  0.000e+00
       1190    19.9476  34.739557      3.904     5.5976    -5.4829     1.3171  0.000e+00
       1191    19.9808  34.681805      3.870     5.6064    -5.5607     1.3414  0.000e+00
       1192    20.0078  34.696712      3.837     5.6143    -5.5140     1.3131  0.000e+00
       1193    20.0212  34.479027      3.798     5.6261    -5.4673     1.3171  0.000e+00
       1194    20.0658  34.386787      3.765     5.6402    -5.4362     1.3090  0.000e+00
       1195    20.1256  34.366991      3.731     5.6382    -5.5140     1.3090  0.000e+00
       1196    20.1540  34.543891      3.692     5.6413    -5.4518     1.3171  0.000e+00
       1197    20.1527  34.310376      3.652     5.6537    -5.4362     1.3009  0.000e+00
       1198    20.1701  34.039296      3.612     5.6623    -5.5607     1.3009  0.000e+00
       1199    20.2357  33.838902      3.577     5.6629    -5.4829     1.1635  0.000e+00
       1200    20.3123  33.871973      3.541     5.6663    -5.4518     1.1958  0.000e+00
       1201    20.3538  33.939940      3.501     5.6710    -5.5452     1.1796  0.000e+00
       1202    20.3623  33.961879      3.461     5.6792    -5.5296     1.1675  0.000e+00
       1203    20.3633  33.890285      3.422     5.6941    -5.4985     1.1109  0.000e+00
       1204    20.3729  33.802218      3.380     5.7058    -5.4673     1.1068  0.000e+00
       1205    20.3927  33.985536      3.340     5.7142    -5.4829     1.1109  0.000e+00
       1206    20.3782  33.886205      3.302     5.7317    -5.4985     1.1190  0.000e+00
       1207    20.3797  33.720906      3.265     5.7473    -5.1560     1.1432  0.000e+00
       1208    20.4140  33.864340      3.229     5.7490    -5.2806     1.1271  0.000e+00
       1209    20.4120  33.718602      3.191     5.7622    -5.2806     1.1311  0.000e+00
       1210    20.4182  33.696606      3.152     5.7713    -5.2494     1.1271  0.000e+00
       1211    20.4292  33.781433      3.114     5.7659    -5.4362     1.0017  0.000e+00
       1212    20.4191  33.806935      3.081     5.7715    -5.5607     1.0179  0.000e+00
       1213    20.4097  33.639433      3.039     5.7670    -5.6074     0.9977  0.000e+00
       1214    20.4366  33.520020      3.003     5.7561    -5.5452     0.9815  0.000e+00
       1215    20.4889  33.547732      2.964     5.7385    -5.4362     0.9977  0.000e+00
       1216    20.5134  33.585289      2.930     5.7249    -5.6074     1.0624  0.000e+00
       1217    20.5046  33.540020      2.890     5.7279    -5.5452     1.0624  0.000e+00
       1218    20.5126  33.393542      2.848     5.7352    -5.5607     1.0745  0.000e+00
       1219    20.5441  33.423918      2.809     5.7348    -5.5452     1.0421  0.000e+00
       1220    20.5575  33.455484      2.769     5.7393    -5.5296     1.0017  0.000e+00
       1221    20.5554  33.369980      2.729     5.7599    -5.4673     0.9896  0.000e+00
       1222    20.5658  33.356119      2.691     5.7657    -5.5452     0.9977  0.000e+00
       1223    20.5844  33.330222      2.651     5.7801    -5.5607     0.9734  0.000e+00
       1224    20.5970  33.301048      2.614     5.7872    -5.5296     1.0745  0.000e+00
       1225    20.6027  33.205792      2.567     5.7971    -5.4673     1.0421  0.000e+00
       1226    20.6272  33.180879      2.530     5.8029    -5.4829     1.0502  0.000e+00
       1227    20.6515  33.175250      2.490     5.8073    -5.4518     1.0583  0.000e+00
       1228    20.6630  33.123052      2.446     5.8084    -5.4362     1.1271  0.000e+00
       1229    20.6733  33.085227      2.404     5.8084    -5.4829     1.1149  0.000e+00
       1230    20.6799  33.072173      2.373     5.8077    -5.5140     1.1190  0.000e+00
       1231    20.6806  33.051983      2.340     5.8014    -5.4985     1.0988  0.000e+00
       1232    20.6831  33.048179      2.304     5.7966    -5.5763     1.1554  0.000e+00
       1233    20.6868  33.054498      2.267     5.7790    -5.5452     1.1190  0.000e+00
       1234    20.6859  33.066378      2.234     5.7650    -5.5607     1.1271  0.000e+00
       1235    20.6776  33.023666      2.191     5.7631    -5.4206     1.1432  0.000e+00
       1236    20.6690  32.956600      2.148     5.7643    -5.4518     1.1109  0.000e+00
       1237    20.6691  32.931646      2.108     5.7694    -5.4829     1.1109  0.000e+00
       1238    20.6748  32.909503      2.064     5.7703    -5.5763     1.1190  0.000e+00
       1239    20.6794  32.912014      2.028     5.7759    -5.5296     1.0988  0.000e+00
       1240    20.6803  32.890402      1.984     5.7804    -5.6074     1.1230  0.000e+00
       1241    20.6795  32.889877      1.944     5.7860    -5.5140     1.2201  0.000e+00
       1242    20.6778  32.914526      1.908     5.7915    -5.4829     1.1877  0.000e+00
       1243    20.6729  32.913884      1.869     5.7967    -5.4829     1.1958  0.000e+00
       1244    20.6681  32.919668      1.833     5.7994    -5.4985     1.1715  0.000e+00
       1245    20.6633  32.896478      1.791     5.8060    -5.3739     1.1918  0.000e+00
       1246    20.6604  32.881936      1.756     5.8047    -5.5452     1.1796  0.000e+00
       1247    20.6587  32.848890      1.714     5.8067    -5.3739     1.1715  0.000e+00
       1248    20.6626  32.840426      1.679     5.8024    -5.4673     1.1877  0.000e+00
       1249    20.6651  32.882227      1.635     5.7938    -5.5607     1.2039  0.000e+00
       1250    20.6577  32.874636      1.593     5.7860    -5.4829     1.3333  0.000e+00
       1251    20.6512  32.833423      1.555     5.7740    -5.4829     1.3171  0.000e+00
       1252    20.6559  32.799112      1.511     5.7697    -5.4362     1.2969  0.000e+00
       1253    20.6628  32.793803      1.468     5.7561    -5.3895     1.3252  0.000e+00
       1254    20.6653  32.779978      1.420     5.7538    -5.4673     1.1796  0.000e+00
       1255    20.6683  32.775603      1.382     5.7521    -5.4673     1.1796  0.000e+00
       1256    20.6668  32.788260      1.340     5.7523    -5.4051     1.1796  0.000e+00
       1257    20.6641  32.786335      1.303     5.7542    -5.5763     1.1796  0.000e+00
       1258    20.6653  32.779977      1.267     5.7562    -5.3739     1.1230  0.000e+00
       1259    20.6697  32.779977      1.227     5.7552    -5.4051     1.1432  0.000e+00
       1260    20.6709  32.776127      1.179     5.7519    -5.5763     1.1149  0.000e+00
       1261    20.6718  32.764522      1.132     5.7525    -5.5140     1.1311  0.000e+00
       1262    20.6734  32.764929      1.086     5.7483    -5.6230     1.1190  0.000e+00
       1263    20.6758  32.753150      1.041     5.7480    -5.4985     1.1068  0.000e+00
       1264    20.6782  32.747203      1.000     5.7480    -5.5296     1.1190  0.000e+00
       1265    20.6825  32.747610      0.968     5.7475    -5.4829     1.1271  0.000e+00
       1266    20.6867  32.747668      0.922     5.7479    -5.5140     1.1230  0.000e+00
       1267    20.6896  32.748600      0.871     5.7501    -5.5763     1.2484  0.000e+00
       1268    20.6936  32.749883      0.820     5.7519    -5.4518     1.2484  0.000e+00
       1269    20.6985  32.745101      0.778     5.7461    -5.4985     1.2767  0.000e+00
       1270    20.7003  32.743527      0.741     5.7370    -5.5607     1.2322  0.000e+00
       1271    20.7022  32.741428      0.701     5.7285    -5.5140     1.1432  0.000e+00
       1272    20.7069  32.738745      0.661     5.7106    -5.4985     1.1432  0.000e+00
       1273    20.7120  32.737054      0.617     5.7226    -5.5763     1.1190  0.000e+00
       1274    20.7105  32.733615      0.575     5.7136    -5.5918     1.1109  0.000e+00
       1275    20.7058  32.718169      0.526     5.7198    -5.5452     1.0543  0.000e+00
       1276    20.7077  32.716711      0.482     5.7340    -5.5452     1.0300  0.000e+00
       1277    20.7102  32.713331      0.438     5.7430    -5.4985     1.0624  0.000e+00
       1278    20.7110  32.704764      0.387     5.7471    -5.4985     1.0583  0.000e+00
       1279    20.7107  32.692469      0.351     5.7312    -5.5452     1.0098  0.000e+00
       1280    20.7096  32.695557      0.325     5.6943    -5.5452     0.9855  0.000e+00
       1281    20.6979  32.696899      0.289     5.6279    -5.5140     0.9855  0.000e+00
       1282    20.6805  32.695152      0.230     5.5503    -5.4673     0.9774  0.000e+00
       1283    20.6685  32.693289      0.159     5.4632    -5.4051     0.9977  0.000e+00
       1284    20.6551  32.694747      0.117     5.3926    38.5327     0.7834  0.000e+00
       1285    20.6425  32.692068      0.119     5.3468    38.6416     0.8036  0.000e+00
       1286    20.6331  32.686709      0.117     5.2943    38.4860     0.8157  0.000e+00
       1287    20.6261  10.345316      0.123     5.7263    38.4082     0.8076  0.000e+00
       1288    20.6189   4.744946      0.121     5.7146    20.8206     1.5152  0.000e+00
       1289    20.6140   5.580903      0.119     5.5396    20.8517     1.5031  0.000e+00
       1290    20.6118   6.025495      0.121     5.3695    20.8206     1.4869  0.000e+00
       1291    20.6097   5.449223      0.121     5.2236    20.7584     1.4910  0.000e+00
       1292    20.6066   4.856115      0.119     5.1033    12.8673     0.5246  0.000e+00
       1293    20.6019   4.169878      0.122     5.0183    12.7272     0.5124  0.000e+00
       1294    20.5936   3.648804      0.119     4.9742    12.7272     0.5043  0.000e+00
       1295    20.5840   3.271874      0.121     4.9720    12.8206     0.5205  0.000e+00
       1296    20.5747   2.966351      0.121     4.9929     1.7545     0.3102  0.000e+00
       1297    20.5679   2.725834      0.121     5.0353     1.6299     0.2941  0.000e+00
       1298    20.5627   2.511870      0.119     5.0707     1.5210     0.3102  0.000e+00
       1299    20.5571   2.409646      0.119     5.0999     1.7389     0.3305  0.000e+00
       1300    20.5516   2.272621      0.117     5.1272     1.5521     0.3062  0.000e+00
       1301    20.5458   2.145727      0.120     5.1532    27.2798    -0.0901  0.000e+00
       1302    20.5398   2.036016      0.119     5.1743    27.3109    -0.0941  0.000e+00
       1303    20.5334   1.912907      0.119     5.1894    27.2331    -0.0537  0.000e+00
       1304    20.5271   1.810571      0.117     5.2046    27.2019    -0.0860  0.000e+00
       1305    20.5205   1.680689      0.119     5.2103    38.1124     0.1161  0.000e+00
       1306    20.5139   1.571815      0.117     5.2239    38.1591     0.1202  0.000e+00
       1307    20.5070   1.476836      0.118     5.2384    37.9568     0.1121  0.000e+00
       1308    20.5003   1.374726      0.120     5.2390    37.8790     0.0959  0.000e+00
       1309    20.4936   1.243769      0.115     5.2485    27.9646     0.0595  0.000e+00
       1310    20.4865   1.158199      0.115     5.2460    27.8089     0.0515  0.000e+00
       1311    20.4794   1.108583      0.113     5.2579    27.9023     0.0515  0.000e+00
       1312    20.4725   1.092362      0.117     5.2586    27.9023     0.0434  0.000e+00
       1313    20.4653   1.064137      0.118     5.2594   585.5988     1.0017  0.000e+00
       1314    20.4582   1.054259      0.120     5.2627   585.8167     0.9734  0.000e+00
       1315    20.4509   1.022932      0.115     5.2674   585.6299     0.9977  0.000e+00
       1316    20.4439   0.969290      0.117     5.2661   585.6766     1.0138  0.000e+00
       1317    20.4363   0.907221      0.115     5.2697   585.7233     0.9896  0.000e+00
       1318    20.4291   0.865710      0.120     5.2726   118.9996     0.8561  0.000e+00
       1319    20.4218   0.862091      0.117     5.2653   118.9062     0.8602  0.000e+00
       1320    20.4146   0.876544      0.115     5.2710   118.9062     0.8602  0.000e+00
       1321    20.4069   0.875936      0.118     5.2691   118.8906     0.8764  0.000e+00
       1322    20.3996   0.858588      0.118     5.2704   137.8478     1.1837  0.000e+00
       1323    20.3922   0.842729      0.116     5.2665   137.8478     1.1998  0.000e+00
       1324    20.3847   0.827721      0.116     5.2683   137.8790     1.1958  0.000e+00
       1325    20.3769   0.818820      0.118     5.2650   137.8323     1.1918  0.000e+00
       1326    20.3696   0.810471      0.116     5.2718   255.7467     1.2524  0.000e+00
       1327    20.3621   0.792051      0.116     5.2717   255.5755     1.2605  0.000e+00
       1328    20.3547   0.767997      0.116     5.2696   255.5443     1.2726  0.000e+00
       1329    20.3470   0.747772      0.120     5.2699   255.6377     1.2241  0.000e+00
       1330    20.3397   0.727423      0.113     5.2693   339.3576     1.3818  0.000e+00
       1331    20.3320   0.708041      0.118     5.2763   339.4198     1.3859  0.000e+00
       1332    20.3248   0.688793      0.116     5.2762   339.4665     1.3697  0.000e+00
       1333    20.3175   0.670280      0.113     5.2804   339.2642     1.3859  0.000e+00
       1334    20.3103   0.653560      0.118     5.2764   339.3887     1.4020  0.000e+00
       1335    20.3028   0.637857      0.118     5.2804   506.4860     1.5880  0.000e+00
       1336    20.2956   0.627404      0.114     5.2807   506.5794     1.5516  0.000e+00
       1337    20.2884   0.617786      0.114     5.2778   506.5949     1.5961  0.000e+00
       1338    20.2811   0.609489      0.118     5.2822   506.4704     1.5921  0.000e+00
       1339    20.2738   0.604026      0.114     5.2759   339.4510     1.5031  0.000e+00
       1340    20.2669   0.595591      0.116     5.2781   339.6222     1.5031  0.000e+00
       1341    20.2597   0.589818      0.114     5.2795   339.7000     1.5072  0.000e+00
       1342    20.2526   0.583903      0.118     5.2838   339.4821     1.4869  0.000e+00
       1343    20.2456   0.583074      0.114     5.2810   570.8595     1.9398  0.000e+00
       1344    20.2385   0.576619      0.118     5.2821   570.8128     1.9681  0.000e+00
       1345    20.2315   0.565655      0.116     5.2872   570.9218     1.9762  0.000e+00
       1346    20.2245   0.562772      0.114     5.2862   570.8284     1.9600  0.000e+00
       1347    20.2174   0.566340      0.114     5.2838   490.9218     2.0692  0.000e+00
       1348    20.2107   0.566625      0.116     5.2851   490.8284     2.0733  0.000e+00
       1349    20.2037   0.566853      0.118     5.2847   490.7817     2.0692  0.000e+00
       1350    20.1970   0.565312      0.116     5.2903   490.7973     2.0773  0.000e+00
       1351    20.1901   0.561687      0.116     5.2885   490.6261     2.1056  0.000e+00
       1352    20.1835   0.557521      0.114     5.2864   542.9062     2.0854  0.000e+00
       1353    20.1768   0.552756      0.116     5.2835   542.9685     2.0652  0.000e+00
       1354    20.1703   0.549191      0.114     5.2834   542.8751     2.0854  0.000e+00
       1355    20.1636   0.542005      0.114     5.2875   542.8440     2.0894  0.000e+00
       1356    20.1569   0.536104      0.114     5.2848   616.5405     2.0854  0.000e+00
       1357    20.1505   0.529093      0.118     5.2839   616.8829     2.0692  0.000e+00
       1358    20.1439   0.524933      0.116     5.2839   616.7428     2.0894  0.000e+00
       1359    20.1376   0.518923      0.114     5.2908   616.8050     2.0692  0.000e+00
       1360    20.1313   0.513740      0.116     5.2902   569.9879     2.1137  0.000e+00
       1361    20.1250   0.507705      0.114     5.2897   569.9412     2.0814  0.000e+00
       1362    20.1187   0.502924      0.116     5.2921   569.8478     2.1097  0.000e+00
       1363    20.1125   0.499509      0.114     5.2934   569.8790     2.0733  0.000e+00
       1364    20.1062   0.495412      0.116     5.2923   538.6572     2.0733  0.000e+00
       1365    20.0999   0.486084      0.114     5.2931   479.3264     2.0490  0.000e+00
       1366    20.0941   0.492454      0.112     5.2943   479.4665     2.0207  0.000e+00
       1367    20.0879   0.492084      0.112     5.2922   479.4821     1.9924  0.000e+00
       1368    20.0821   0.491828      0.112     5.2929   479.3264     2.0288  0.000e+00
       1369    20.0762   0.491544      0.116     5.2893   465.3187     1.9722  0.000e+00
       1370    20.0702   0.487904      0.114     5.2904   465.3498     1.9439  0.000e+00
       1371    20.0646   0.487847      0.112     5.2899   465.2408     1.9439  0.000e+00
       1372    20.0589   0.486198      0.112     5.2864   465.2564     1.9762  0.000e+00
       1373    20.0530   0.486823      0.116     5.2860   482.0346     1.9034  0.000e+00
       1374    20.0476   0.484435      0.114     5.2839   482.1591     1.8792  0.000e+00
       1375    20.0420   0.473179      0.112     5.2848   482.0657     1.8913  0.000e+00
       1376    20.0363   0.481706      0.110     5.2765   482.1591     1.9237  0.000e+00
       1377    20.0310   0.488018      0.114     5.2806   474.7506     1.8145  0.000e+00
       1378    20.0257   0.485004      0.114     5.2775   474.9218     1.8387  0.000e+00
       1379    20.0202   0.484435      0.112     5.2748   474.5949     1.8185  0.000e+00
       1380    20.0147   0.486567      0.116     5.2754   474.8906     1.8428  0.000e+00
       1381    20.0095   0.770016      0.114     5.2720   474.8128     1.8226  0.000e+00
       1382    20.0043   1.518159      0.116     5.2585   490.4548     1.7134  0.000e+00
       1383    19.9992   1.804288      0.116     5.2533   490.2214     1.7215  0.000e+00
       1384    19.9940   1.696206      0.114     5.2561   490.3770     1.7093  0.000e+00
       1385    19.9890   1.478953      0.114     5.2553   490.4237     1.7093  0.000e+00
       1386    19.9836   1.365450      0.114     5.2656   460.7272     1.7296  0.000e+00
       1387    19.9786   1.305310      0.116     5.2604   460.7584     1.7053  0.000e+00
       1388    19.9736   1.173561      0.116     5.2660   460.6183     1.7013  0.000e+00
       1389    19.9687   1.164573      0.117     5.2626   460.6027     1.6810  0.000e+00
       1390    19.9642   1.313735      0.115     5.2658   268.8206     1.2726  0.000e+00
       1391    19.9597   1.388994      0.114     5.2675   268.9296     1.2484  0.000e+00
       1392    19.9555   1.407545      0.115     5.2699   268.7428     1.2484  0.000e+00
       1393    19.9514   1.355080      0.115     5.2710   268.8517     1.2443  0.000e+00
       1394    19.9475   1.250964      0.115     5.2730   212.3692     0.9087  0.000e+00
       1395    19.9435   1.168009      0.115     5.2745   212.3692     0.9249  0.000e+00
       1396    19.9396   1.101556      0.115     5.2759   212.5093     0.9047  0.000e+00
       1397    19.9358   1.039219      0.115     5.2778   212.5871     0.9370  0.000e+00
       1398    19.9321   1.053560      0.117     5.2776   212.5716     0.9249  0.000e+00
       1399    19.9282   1.048039      0.110     5.2709   167.5443     0.8885  0.000e+00
       1400    19.9250   1.024480      0.112     5.2734   167.6844     0.8480  0.000e+00
       1401    19.9212   1.015408      0.117     5.2756   167.5910     0.8764  0.000e+00
       1402    19.9179   1.003688      0.115     5.2765   167.6533     0.8561  0.000e+00
       1403    19.9145   0.998500      0.112     5.2771   113.9412     0.9289  0.000e+00
       1404    19.9108   1.014242      0.114     5.2792   114.0502     0.9532  0.000e+00
       1405    19.9077   1.102201      0.114     5.2752   114.0191     0.9208  0.000e+00
       1406    19.9042   1.185257      0.115     5.2715   114.0191     0.9006  0.000e+00
       1407    19.9006   1.171299      0.115     5.2747   124.1669     1.0058  0.000e+00
       1408    19.8975   1.196930      0.113     5.2699   123.9801     0.9815  0.000e+00
       1409    19.8941   1.178292      0.115     5.2714   124.1358     0.9815  0.000e+00
       1410    19.8906   1.163575      0.115     5.2734   124.0891     0.9815  0.000e+00
       1411    19.8872   1.136224      0.115     5.2753   108.7739     0.9411  0.000e+00
       1412    19.8841   1.093184      0.117     5.2785   108.8517     0.9168  0.000e+00
       1413    19.8807   1.041585      0.115     5.2868   108.7739     0.9208  0.000e+00
